File: xrd_output/2M1-std2.TXT
Sample
Comments
Filename	C:\WINDMAX\DATA\USERS\GEO\GEO_ER~1\Pyrenees\BULKMA~1\2M1-std2.raw
Goniometer	Ultima IV In-plane
Attachment	Auto sample changer (10 samples)
ScanningMode	2Theta/Theta
ScanningType	Continuos Scanning
X-Ray	40kV/44mA
DivSlit	2/3deg.
DivH.L.Slit	10mm
SctSlit	2/3deg.
RecSlit	0.3mm
Start	16
Stop	44
Step	0.02
Speed	0.3
Offset	0
16	694
16.1	730.75
16.2	695.5
16.3	655.25
16.4	631.5
16.5	642.75
16.6	635.5
16.7	638.5
16.8	655.75
16.9	648
17	640.75
17.1	644.25
17.2	633.75
17.3	651.75
17.4	684.75
17.5	711
17.6	780
17.7	903.25
17.8	1093.5
17.9	1347.75
18	1316.75
18.1	1167.25
18.2	942.5
18.3	763.75
18.4	749.25
18.5	729
18.6	761.5
18.7	746.5
18.8	757
18.9	704.75
19	679.25
19.1	704
19.2	719.75
19.3	761.5
19.4	763
19.5	797.75
19.6	928
19.7	1160.75
19.8	1508
19.9	2204
20	2671.5
20.1	2341.5
20.2	1503.5
20.3	1168.25
20.4	1086.25
20.5	963
20.6	995.5
20.7	1117.25
20.8	1223.5
20.9	1093
21	903.75
21.1	788.25
21.2	788.25
21.3	798.75
21.4	823.75
21.5	927.25
21.6	1034.75
21.7	1102.25
21.8	1053.5
21.9	940.75
22	849
22.1	805
22.2	794.75
22.3	826
22.4	843
22.5	908.25
22.6	920.5
22.7	929.75
22.8	1032.5
22.9	1251.25
23	1538
23.1	1609
23.2	1326.5
23.3	1036
23.4	874.75
23.5	862.5
23.6	916.75
23.7	1010
23.8	1186.5
23.9	1434.25
24	1573.75
24.1	1453
24.2	1315.75
24.3	1102
24.4	949
24.5	845.25
24.6	818.5
24.7	816.5
24.8	810.25
24.9	870.5
25	910.25
25.1	1012.5
25.2	1087
25.3	1152.25
25.4	1199.75
25.5	1434.25
25.6	1692.75
25.7	1644.75
25.8	1293.25
25.9	1015
26	913.75
26.1	873.75
26.2	865.5
26.3	919
26.4	977.75
26.5	1131.25
26.6	1400.5
26.7	1823
26.8	2266.75
26.9	2347.25
27	1875.25
27.1	1374.75
27.2	1082.75
27.3	976.5
27.4	898.25
27.5	902.5
27.6	953
27.7	1015.25
27.8	1154.25
27.9	1461.75
28	1704.25
28.1	1531.5
28.2	1239.5
28.3	1064.25
28.4	931.75
28.5	888
28.6	866.75
28.7	928.25
28.8	900.75
28.9	881.25
29	843.25
29.1	837.25
29.2	771.5
29.3	740.25
29.4	751.25
29.5	740.75
29.6	798.25
29.7	903.25
29.8	1070.5
29.9	1330.5
30	1551.25
30.1	1417.5
30.2	1141
30.3	903.25
30.4	800.75
30.5	724
30.6	708
30.7	699.5
30.8	729.5
30.9	757.75
31	828.25
31.1	965
31.2	1152
31.3	1427.75
31.4	1570.25
31.5	1468
31.6	1472.25
31.7	1423
31.8	1355.75
31.9	1175
32	1033.5
32.1	1105.5
32.2	1156.25
32.3	1070.75
32.4	843.75
32.5	759.5
32.6	745
32.7	693.75
32.8	691.75
32.9	699.25
33	720.5
33.1	683.75
33.2	679.25
33.3	654.75
33.4	646.5
33.5	637.5
33.6	625.25
33.7	665
33.8	672.25
33.9	684.5
34	717
34.1	736
34.2	768
34.3	730.5
34.4	781
34.5	897.25
34.6	1149.5
34.7	1519.25
34.8	1682.5
34.9	1776.5
35	2066.75
35.1	2657
35.2	2807.5
35.3	2091
35.4	1400.5
35.5	1005.25
35.6	883
35.7	801.25
35.8	795.5
35.9	839.5
36	856.75
36.1	855
36.2	866.5
36.3	822.5
36.4	872.75
36.5	978.75
36.6	1094
36.7	1067.25
36.8	1024
36.9	967.5
37	921.5
37.1	805.25
37.2	774.75
37.3	761.25
37.4	812.5
37.5	866
37.6	919.25
37.7	1033.75
37.8	1113.5
37.9	1201.75
38	1161.25
38.1	1015.75
38.2	873.75
38.3	820.25
38.4	760
38.5	698
38.6	640
38.7	612.75
38.8	613.75
38.9	593.75
39	604.25
39.1	587.5
39.2	625.75
39.3	608.5
39.4	621.25
39.5	594.75
39.6	619.75
39.7	628
39.8	633.5
39.9	650.75
40	670.5
40.1	764.5
40.2	846.25
40.3	885.25
40.4	849.75
40.5	811.25
40.6	804.5
40.7	747.25
40.8	829.5
40.9	876.5
41	854.75
41.1	837
41.2	792
41.3	767.5
41.4	788.75
41.5	775.75
41.6	747.25
41.7	705.25
41.8	662.25
41.9	720
42	772.25
42.1	856.75
42.2	922
42.3	954.25
42.4	988
42.5	1045.75
42.6	1042.5
42.7	979.75
42.8	789.25
42.9	663.75
43	632.5
43.1	585.5
43.2	559.25
43.3	561.25
43.4	539.25
43.5	559.25
43.6	577.75
43.7	559.75
43.8	591.25
43.9	599
44	606