File: xrd_output/JA_08-C.TXT
Sample
Comments
Filename	C:\WINDMAX\DATA\USERS\GEO\GEO_ER~1\Pyrenees\BULKMA~1\JA_08-C.raw
Goniometer	Ultima IV In-plane
Attachment	Auto sample changer (10 samples)
ScanningMode	2Theta/Theta
ScanningType	Continuos Scanning
X-Ray	40kV/44mA
DivSlit	2/3deg.
DivH.L.Slit	10mm
SctSlit	2/3deg.
RecSlit	0.3mm
Start	16
Stop	44
Step	0.02
Speed	0.3
Offset	0
16	518.75
16.1	510.75
16.2	535.75
16.3	519.75
16.4	523.5
16.5	506.25
16.6	529.25
16.7	498.5
16.8	507.5
16.9	519.75
17	530.25
17.1	529
17.2	528.25
17.3	538.5
17.4	552.5
17.5	560.25
17.6	547.5
17.7	582.5
17.8	629.25
17.9	627.75
18	623
18.1	588.25
18.2	577
18.3	567.5
18.4	568.75
18.5	565.25
18.6	593
18.7	627.5
18.8	748.75
18.9	730.25
19	594
19.1	601
19.2	599.25
19.3	570.75
19.4	588
19.5	614.5
19.6	643.75
19.7	737.25
19.8	834.25
19.9	886.5
20	768.75
20.1	644.5
20.2	645.5
20.3	615.25
20.4	604
20.5	626
20.6	672.75
20.7	791.75
20.8	1123.75
20.9	1513
21	930.75
21.1	611.5
21.2	561.5
21.3	577
21.4	561.5
21.5	585.5
21.6	549.75
21.7	584.5
21.8	575
21.9	594.5
22	651.75
22.1	686.75
22.2	594.25
22.3	532.25
22.4	543.5
22.5	564.25
22.6	573
22.7	587.5
22.8	628.75
22.9	684.5
23	816.75
23.1	1019.25
23.2	856.25
23.3	632.5
23.4	564.75
23.5	566
23.6	599
23.7	645.75
23.8	752.25
23.9	986
24	1559
24.1	1512.75
24.2	803.5
24.3	709.5
24.4	642.5
24.5	589
24.6	561.25
24.7	550.5
24.8	588.25
24.9	594
25	610.25
25.1	673.75
25.2	713
25.3	702.75
25.4	656.25
25.5	690
25.6	631
25.7	598
25.8	570.75
25.9	563.5
26	567.75
26.1	551.25
26.2	600.75
26.3	751.5
26.4	1289
26.5	2617.5
26.6	5131
26.7	5492.75
26.8	2103.5
26.9	901.25
27	688
27.1	631.5
27.2	599.5
27.3	571.5
27.4	597
27.5	611.5
27.6	646.25
27.7	731.5
27.8	838
27.9	876
28	823
28.1	716.75
28.2	713.5
28.3	668.5
28.4	609.25
28.5	581.75
28.6	556.25
28.7	538.5
28.8	559.25
28.9	552.5
29	591.75
29.1	687
29.2	923.75
29.3	1689.75
29.4	4418.75
29.5	6121.5
29.6	3150
29.7	1119.25
29.8	744.25
29.9	663.5
30	618.25
30.1	616.75
30.2	593.5
30.3	577.5
30.4	569.75
30.5	592.75
30.6	647.75
30.7	727
30.8	895.25
30.9	1049.25
31	921.75
31.1	741.5
31.2	665.75
31.3	662.25
31.4	697.5
31.5	742.5
31.6	714
31.7	599.5
31.8	571.5
31.9	557.75
32	545.25
32.1	533.75
32.2	547.25
32.3	552.5
32.4	647.5
32.5	643
32.6	563.5
32.7	491.75
32.8	526.75
32.9	609
33	582.75
33.1	554.75
33.2	526.75
33.3	529.25
33.4	514.5
33.5	540.5
33.6	552
33.7	536
33.8	550.75
33.9	533.25
34	519.75
34.1	514.75
34.2	510
34.3	534
34.4	557.75
34.5	647
34.6	694.25
34.7	674
34.8	696.25
34.9	762.75
35	809
35.1	782.25
35.2	697
35.3	625
35.4	680.25
35.5	876
35.6	757.25
35.7	633.75
35.8	608.75
35.9	757.75
36	1105.5
36.1	1164.5
36.2	822.25
36.3	655.25
36.4	648.5
36.5	828.75
36.6	921.75
36.7	727.25
36.8	616.25
36.9	596
37	594.75
37.1	540.75
37.2	584.25
37.3	597.5
37.4	628.5
37.5	630.25
37.6	637.25
37.7	623
37.8	600.75
37.9	568.5
38	562.75
38.1	537.75
38.2	570
38.3	507
38.4	506
38.5	465.25
38.6	499.25
38.7	532.5
38.8	636.75
38.9	713
39	599.25
39.1	512.25
39.2	566.5
39.3	732
39.4	1335.5
39.5	1817.75
39.6	1319.5
39.7	770.25
39.8	573.75
39.9	548.25
40	533
40.1	546
40.2	599.5
40.3	666.25
40.4	627
40.5	540.75
40.6	512.75
40.7	533
40.8	560
40.9	560.25
41	617
41.1	661.25
41.2	650.25
41.3	571.5
41.4	516.25
41.5	480.25
41.6	475.25
41.7	465.75
41.8	474.5
41.9	499.75
42	501.75
42.1	523.75
42.2	536
42.3	615.25
42.4	796.25
42.5	813.5
42.6	725.75
42.7	723
42.8	664.75
42.9	600
43	588.25
43.1	781.25
43.2	1277
43.3	1264
43.4	925.5
43.5	702
43.6	745
43.7	704.75
43.8	592.25
43.9	536.25
44	509.75