File: xrd_output/JA_08-F.TXT
Sample
Comments
Filename	C:\WINDMAX\DATA\USERS\GEO\GEO_ER~1\Pyrenees\BULKMA~1\JA_08-F.raw
Goniometer	Ultima IV In-plane
Attachment	Auto sample changer (10 samples)
ScanningMode	2Theta/Theta
ScanningType	Continuos Scanning
X-Ray	40kV/44mA
DivSlit	2/3deg.
DivH.L.Slit	10mm
SctSlit	2/3deg.
RecSlit	0.3mm
Start	16
Stop	44
Step	0.02
Speed	0.3
Offset	0
16	724
16.1	768.25
16.2	817.75
16.3	855.75
16.4	719.5
16.5	695.5
16.6	685.75
16.7	671.75
16.8	699.75
16.9	687
17	706.25
17.1	713.75
17.2	741.25
17.3	855.25
17.4	866.25
17.5	829.25
17.6	849.5
17.7	936.25
17.8	969.75
17.9	960
18	927.5
18.1	968.75
18.2	1008.25
18.3	883.5
18.4	824.75
18.5	846
18.6	919.25
18.7	1015.5
18.8	924.5
18.9	802
19	768.25
19.1	797.75
19.2	777.5
19.3	826.75
19.4	813
19.5	935.5
19.6	1103.25
19.7	1286.5
19.8	1451.5
19.9	1364.5
20	1328.25
20.1	1404
20.2	1474.5
20.3	1227
20.4	1085.25
20.5	1138.5
20.6	1389.75
20.7	1821.25
20.8	1773.5
20.9	1246
21	984
21.1	897.5
21.2	868.75
21.3	887.25
21.4	870.75
21.5	827
21.6	827.5
21.7	823.5
21.8	879.25
21.9	932.25
22	994
22.1	871.5
22.2	822.75
22.3	824
22.4	827.75
22.5	812.5
22.6	834.75
22.7	868.5
22.8	884.5
22.9	962.75
23	996
23.1	1034.75
23.2	961.25
23.3	954.75
23.4	1003.25
23.5	917.25
23.6	877.75
23.7	900
23.8	905.75
23.9	926.25
24	915
24.1	914.75
24.2	924.75
24.3	894.75
24.4	864
24.5	915.25
24.6	925.25
24.7	954.75
24.8	874
24.9	914.75
25	933.25
25.1	951.75
25.2	995
25.3	1026.75
25.4	1053
25.5	1077
25.6	1071.25
25.7	1023.5
25.8	1006.5
25.9	973
26	972.25
26.1	1019.75
26.2	1188
26.3	1269.25
26.4	1349.25
26.5	1441.25
26.6	1382.5
26.7	1295.75
26.8	1156.25
26.9	1033.25
27	1033
27.1	953
27.2	939
27.3	967.25
27.4	926
27.5	917.75
27.6	936.5
27.7	983.75
27.8	1047.5
27.9	1063.75
28	1087
28.1	1029
28.2	977.5
28.3	943.75
28.4	1001.5
28.5	1033.25
28.6	1069
28.7	1066.25
28.8	1117.25
28.9	1276.5
29	1602.5
29.1	1988
29.2	2115.25
29.3	2489.5
29.4	2733.25
29.5	2038
29.6	1617.25
29.7	1332.75
29.8	1160.5
29.9	1066.25
30	1006.75
30.1	1051
30.2	1000.75
30.3	957.75
30.4	987
30.5	955.75
30.6	887
30.7	945.25
30.8	1071.75
30.9	1122.25
31	1275
31.1	1484.5
31.2	1333
31.3	1164.25
31.4	1132.5
31.5	1213.25
31.6	1335
31.7	1371.5
31.8	1237.5
31.9	1042.25
32	1024.5
32.1	1013.75
32.2	970
32.3	887.25
32.4	864
32.5	797.25
32.6	776.5
32.7	796
32.8	787.25
32.9	798.25
33	805
33.1	798
33.2	868
33.3	971.25
33.4	1121.75
33.5	953.5
33.6	832.25
33.7	763.5
33.8	735.5
33.9	753
34	723.5
34.1	738.75
34.2	738.25
34.3	793.25
34.4	880.25
34.5	1028
34.6	1079.5
34.7	1057.75
34.8	1127.25
34.9	1169.25
35	1127
35.1	1058
35.2	934.25
35.3	873.25
35.4	871.5
35.5	861.25
35.6	815.25
35.7	748.75
35.8	778
35.9	868.5
36	996.75
36.1	947
36.2	800.5
36.3	805.75
36.4	781.25
36.5	828.75
36.6	840.5
36.7	851.75
36.8	817.75
36.9	774.75
37	726
37.1	768
37.2	761.75
37.3	799.75
37.4	825.5
37.5	839.25
37.6	842.5
37.7	840.5
37.8	827.25
37.9	774
38	770.25
38.1	747.5
38.2	734.5
38.3	715
38.4	664.5
38.5	652
38.6	640
38.7	674.75
38.8	704
38.9	708.25
39	721
39.1	712.75
39.2	721.5
39.3	782.25
39.4	880.25
39.5	900.5
39.6	771
39.7	728.75
39.8	691.25
39.9	699.75
40	688
40.1	717
40.2	697.75
40.3	690.5
40.4	707.25
40.5	725.25
40.6	764.5
40.7	800
40.8	783.75
40.9	748
41	715.75
41.1	722.25
41.2	673.75
41.3	660.75
41.4	672
41.5	670.25
41.6	676
41.7	686.25
41.8	705.5
41.9	725
42	760
42.1	774
42.2	759.25
42.3	772
42.4	816.75
42.5	809
42.6	736.5
42.7	682.75
42.8	682.5
42.9	661.25
43	698
43.1	773
43.2	944.25
43.3	994.5
43.4	931.25
43.5	886.5
43.6	835.5
43.7	808.25
43.8	717.75
43.9	686.75
44	690.75