File: xrd_output/JA_08-M.TXT
Sample
Comments
Filename	C:\WINDMAX\DATA\USERS\GEO\GEO_ER~1\Pyrenees\BULKMA~1\JA_08-M.raw
Goniometer	Ultima IV In-plane
Attachment	Auto sample changer (10 samples)
ScanningMode	2Theta/Theta
ScanningType	Continuos Scanning
X-Ray	40kV/44mA
DivSlit	2/3deg.
DivH.L.Slit	10mm
SctSlit	2/3deg.
RecSlit	0.3mm
Start	16
Stop	44
Step	0.02
Speed	0.3
Offset	0
16	948.75
16.1	905.25
16.2	901.25
16.3	909.5
16.4	898.5
16.5	897
16.6	901
16.7	928.75
16.8	954.75
16.9	974.75
17	929.25
17.1	944.25
17.2	943.5
17.3	972.5
17.4	1024.75
17.5	1106.25
17.6	1134
17.7	1266
17.8	1315
17.9	1243.25
18	1191.25
18.1	1085
18.2	1038
18.3	1037.5
18.4	1040.75
18.5	1070.25
18.6	1119.5
18.7	1212.5
18.8	1277.5
18.9	1125.25
19	1063.25
19.1	1050.25
19.2	1086.75
19.3	1119.75
19.4	1129.75
19.5	1164
19.6	1348.75
19.7	1664.5
19.8	1839.5
19.9	1803.5
20	1500.25
20.1	1285.75
20.2	1234.75
20.3	1171
20.4	1181.5
20.5	1209.25
20.6	1267.75
20.7	1420.75
20.8	1667.75
20.9	1620.75
21	1236.25
21.1	1099
21.2	1056
21.3	1076.75
21.4	1113
21.5	1136
21.6	1119.5
21.7	1076.25
21.8	1072.75
21.9	1049.25
22	1075.25
22.1	1083.5
22.2	1056
22.3	1038.5
22.4	1077.25
22.5	1109.75
22.6	1132.75
22.7	1216
22.8	1281.5
22.9	1358
23	1399.5
23.1	1354.25
23.2	1179.75
23.3	1096.5
23.4	1105
23.5	1109.75
23.6	1172
23.7	1239.75
23.8	1442.5
23.9	1712.5
24	2083.75
24.1	1670.5
24.2	1376.75
24.3	1222.5
24.4	1178
24.5	1131
24.6	1110.75
24.7	1186.75
24.8	1195
24.9	1280.5
25	1387.5
25.1	1582
25.2	1530.75
25.3	1465.25
25.4	1408.5
25.5	1378.75
25.6	1272.5
25.7	1203
25.8	1121.75
25.9	1131
26	1080.25
26.1	1127
26.2	1257.75
26.3	1447
26.4	2007
26.5	3333
26.6	5203.25
26.7	4502.5
26.8	2455.5
26.9	1686.5
27	1422
27.1	1269.75
27.2	1206.25
27.3	1188.75
27.4	1178
27.5	1192.5
27.6	1236.75
27.7	1342.25
27.8	1419
27.9	1422.25
28	1314.75
28.1	1208
28.2	1176
28.3	1121.75
28.4	1084.5
28.5	1088.5
28.6	1053.75
28.7	1057.25
28.8	1058.5
28.9	1085.75
29	1136.5
29.1	1192.5
29.2	1429
29.3	2165.75
29.4	3424.5
29.5	2995.5
29.6	1820.25
29.7	1351.75
29.8	1288.5
29.9	1244
30	1215.5
30.1	1106.75
30.2	1055
30.3	1034.25
30.4	1047.25
30.5	1029.5
30.6	1036.25
30.7	1114.5
30.8	1170.25
30.9	1203.25
31	1256.5
31.1	1272.25
31.2	1312
31.3	1329.25
31.4	1287.5
31.5	1290.75
31.6	1195.25
31.7	1111.75
31.8	1040
31.9	1097
32	1113.25
32.1	1077.5
32.2	1044.25
32.3	1076
32.4	1054.25
32.5	994.75
32.6	981.75
32.7	955.75
32.8	982
32.9	1016.25
33	998.75
33.1	987.5
33.2	970
33.3	969.5
33.4	977.5
33.5	973.25
33.6	965
33.7	982.25
33.8	1027.25
33.9	1012.25
34	1017.5
34.1	958.5
34.2	983.75
34.3	1070.75
34.4	1175
34.5	1324.75
34.6	1438.25
34.7	1456.75
34.8	1509
34.9	1694
35	1713.5
35.1	1520.5
35.2	1332.25
35.3	1193.5
35.4	1174.5
35.5	1177.75
35.6	1092
35.7	1060.25
35.8	1085.75
35.9	1199.25
36	1345.5
36.1	1278
36.2	1121.75
36.3	1136
36.4	1198.75
36.5	1344.75
36.6	1356.5
36.7	1205.25
36.8	1158
36.9	1113
37	1046.25
37.1	1087.75
37.2	1078.5
37.3	1121
37.4	1090.75
37.5	1215.75
37.6	1218.25
37.7	1266.5
37.8	1201.25
37.9	1109.5
38	1052.5
38.1	1036.75
38.2	987.25
38.3	947
38.4	900.75
38.5	885.75
38.6	884
38.7	917.25
38.8	965
38.9	965.75
39	913.75
39.1	922
39.2	977.25
39.3	1138.75
39.4	1478.25
39.5	1519
39.6	1224.25
39.7	1008.25
39.8	999
39.9	990.5
40	1024
40.1	1040.75
40.2	1079
40.3	1071.25
40.4	1008.75
40.5	947.75
40.6	986.75
40.7	1033
40.8	1027.5
40.9	1016.25
41	1016.5
41.1	1013.75
41.2	1012.75
41.3	987.75
41.4	969.5
41.5	917
41.6	914.75
41.7	906.25
41.8	956.75
41.9	986
42	983.5
42.1	1012.75
42.2	1052.75
42.3	1110.25
42.4	1250.5
42.5	1184.75
42.6	1102
42.7	1040.5
42.8	985.25
42.9	925.5
43	965.5
43.1	1128
43.2	1239.25
43.3	1168.5
43.4	1033.75
43.5	983.25
43.6	1003.25
43.7	954.5
43.8	948
43.9	891.5
44	934.25