File: xrd_output/random_files/2M1-std-38.TXT
Sample
Comments
Filename	C:\WINDMAX\DATA\USERS\GEO\GEO_ER~1\Pyrenees\BULKMA~1\2M1-std2.raw
Goniometer	Ultima IV In-plane
Attachment	Auto sample changer (10 samples)
ScanningMode	2Theta/Theta
ScanningType	Continuos Scanning
X-Ray	40kV/44mA
DivSlit	2/3deg.
DivH.L.Slit	10mm
SctSlit	2/3deg.
RecSlit	0.3mm
Start	16
Stop	44
Step	0.02
Speed	0.3
Offset	0
  16.000  668.358
  16.100  801.512
  16.200  766.693
  16.300  586.116
  16.400  730.163
  16.500  687.776
  16.600  555.545
  16.700  722.477
  16.800  770.307
  16.900  598.891
  17.000  562.308
  17.100  653.690
  17.200  661.397
  17.300  663.552
  17.400  754.644
  17.500  658.705
  17.600  790.017
  17.700  954.164
  17.800 1119.031
  17.900 1381.252
  18.000 1198.959
  18.100 1128.446
  18.200  860.519
  18.300  741.546
  18.400  699.450
  18.500  716.120
  18.600  656.406
  18.700  757.755
  18.800  774.682
  18.900  775.006
  19.000  722.141
  19.100  680.499
  19.200  722.071
  19.300  663.963
  19.400  893.801
  19.500  780.997
  19.600  965.236
  19.700 1278.172
  19.800 1408.605
  19.900 2187.037
  20.000 2603.845
  20.100 2460.642
  20.200 1485.704
  20.300 1281.714
  20.400 1120.569
  20.500  956.699
  20.600  976.072
  20.700 1172.707
  20.800 1143.048
  20.900  966.289
  21.000  919.513
  21.100  731.119
  21.200  816.300
  21.300  926.919
  21.400  829.741
  21.500  817.175
  21.600  930.329
  21.700 1195.298
  21.800 1128.680
  21.900 1013.290
  22.000  938.069
  22.100  923.730
  22.200  786.505
  22.300  745.098
  22.400  726.472
  22.500  950.439
  22.600  927.267
  22.700  927.796
  22.800  972.831
  22.900 1339.591
  23.000 1563.199
  23.100 1648.324
  23.200 1433.964
  23.300 1120.721
  23.400  824.917
  23.500  846.885
  23.600  998.334
  23.700  914.755
  23.800 1150.257
  23.900 1432.517
  24.000 1459.991
  24.100 1554.886
  24.200 1396.592
  24.300 1176.391
  24.400  841.362
  24.500  786.582
  24.600  689.458
  24.700  937.491
  24.800  894.731
  24.900  953.238
  25.000 1031.728
  25.100  883.143
  25.200 1171.330
  25.300 1084.626
  25.400 1087.558
  25.500 1329.541
  25.600 1810.178
  25.700 1520.529
  25.800 1203.864
  25.900  992.649
  26.000  786.642
  26.100  871.001
  26.200  859.156
  26.300  943.619
  26.400 1061.925
  26.500 1206.645
  26.600 1384.751
  26.700 1828.299
  26.800 2144.539
  26.900 2271.738
  27.000 1909.605
  27.100 1427.008
  27.200  965.651
  27.300  873.069
  27.400  950.383
  27.500  996.497
  27.600 1054.888
  27.700  993.295
  27.800 1037.965
  27.900 1356.926
  28.000 1822.974
  28.100 1435.711
  28.200 1171.074
  28.300  989.187
  28.400  834.310
  28.500 1016.144
  28.600  825.504
  28.700  985.799
  28.800  788.084
  28.900  808.942
  29.000  758.528
  29.100  900.076
  29.200  832.531
  29.300  785.982
  29.400  804.282
  29.500  872.035
  29.600  676.435
  29.700  775.172
  29.800  964.616
  29.900 1447.798
  30.000 1663.864
  30.100 1355.547
  30.200 1046.931
  30.300  932.822
  30.400  801.765
  30.500  610.221
  30.600  792.433
  30.700  736.677
  30.800  762.396
  30.900  671.668
  31.000  819.382
  31.100 1024.039
  31.200 1180.596
  31.300 1472.395
  31.400 1506.649
  31.500 1343.399
  31.600 1461.940
  31.700 1546.898
  31.800 1390.055
  31.900 1118.572
  32.000  908.054
  32.100  982.330
  32.200 1183.266
  32.300  978.395
  32.400  854.459
  32.500  738.669
  32.600  619.963
  32.700  692.707
  32.800  743.496
  32.900  793.291
  33.000  750.437
  33.100  742.522
  33.200  804.937
  33.300  727.868
  33.400  578.320
  33.500  643.183
  33.600  559.934
  33.700  701.930
  33.800  690.737
  33.900  750.895
  34.000  618.199
  34.100  781.730
  34.200  769.498
  34.300  794.532
  34.400  900.486
  34.500  990.034
  34.600 1079.942
  34.700 1470.955
  34.800 1793.299
  34.900 1747.451
  35.000 2165.131
  35.100 2563.497
  35.200 2863.280
  35.300 2122.847
  35.400 1462.088
  35.500  942.092
  35.600  833.022
  35.700  885.374
  35.800  743.921
  35.900  713.066
  36.000  959.564
  36.100  953.855
  36.200  935.141
  36.300  694.627
  36.400  936.458
  36.500  872.391
  36.600 1077.795
  36.700 1029.358
  36.800  963.878
  36.900  956.378
  37.000  823.142
  37.100  680.372
  37.200  667.795
  37.300  733.068
  37.400  768.792
  37.500  793.032
  37.600  853.763
  37.700  987.710
  37.800 1076.561
  37.900 1329.294
  38.000 1274.869
  38.100  988.601
  38.200  940.108
  38.300  948.454
  38.400  771.451
  38.500  800.909
  38.600  628.817
  38.700  723.280
  38.800  541.816
  38.900  609.128
  39.000  504.541
  39.100  514.963
  39.200  524.472
  39.300  500.351
  39.400  524.547
  39.500  661.986
  39.600  697.830
  39.700  630.566
  39.800  665.688
  39.900  773.753
  40.000  582.664
  40.100  861.974
  40.200  855.744
  40.300  985.099
  40.400  944.596
  40.500  875.741
  40.600  851.182
  40.700  638.084
  40.800  799.798
  40.900  790.376
  41.000  873.248
  41.100  843.487
  41.200  794.960
  41.300  842.361
  41.400  772.554
  41.500  810.453
  41.600  752.359
  41.700  832.182
  41.800  652.368
  41.900  672.780
  42.000  895.066
  42.100  753.286
  42.200  874.316
  42.300 1012.438
  42.400  938.395
  42.500 1110.192
  42.600 1040.084
  42.700 1036.063
  42.800  886.830
  42.900  574.663
  43.000  704.653
  43.100  534.512
  43.200  510.597
  43.300  513.874
  43.400  645.203
  43.500  477.366
  43.600  501.652
  43.700  550.949
  43.800  501.031
  43.900  711.656
  44.000  483.807