File: xrd_output/random_files/2M1-std-28.TXT
Sample
Comments
Filename	C:\WINDMAX\DATA\USERS\GEO\GEO_ER~1\Pyrenees\BULKMA~1\2M1-std2.raw
Goniometer	Ultima IV In-plane
Attachment	Auto sample changer (10 samples)
ScanningMode	2Theta/Theta
ScanningType	Continuos Scanning
X-Ray	40kV/44mA
DivSlit	2/3deg.
DivH.L.Slit	10mm
SctSlit	2/3deg.
RecSlit	0.3mm
Start	16
Stop	44
Step	0.02
Speed	0.3
Offset	0
  16.000  663.488
  16.100  803.073
  16.200  766.460
  16.300  584.458
  16.400  526.943
  16.500  727.398
  16.600  538.505
  16.700  658.730
  16.800  575.060
  16.900  773.079
  17.000  764.480
  17.100  610.857
  17.200  679.652
  17.300  748.763
  17.400  808.307
  17.500  839.156
  17.600  857.233
  17.700 1022.977
  17.800 1194.812
  17.900 1306.915
  18.000 1260.865
  18.100 1148.855
  18.200  975.098
  18.300  766.565
  18.400  751.015
  18.500  641.158
  18.600  805.425
  18.700  617.976
  18.800  845.352
  18.900  834.748
  19.000  735.749
  19.100  742.230
  19.200  663.134
  19.300  823.134
  19.400  816.334
  19.500  822.901
  19.600  935.891
  19.700 1092.783
  19.800 1635.831
  19.900 2329.872
  20.000 2716.283
  20.100 2241.703
  20.200 1437.624
  20.300 1206.920
  20.400 1053.409
  20.500 1009.375
  20.600 1116.125
  20.700 1037.882
  20.800 1258.740
  20.900 1006.411
  21.000  972.112
  21.100  910.299
  21.200  876.416
  21.300  904.876
  21.400  953.046
  21.500  831.724
  21.600  948.909
  21.700 1104.335
  21.800 1153.360
  21.900  952.645
  22.000  905.991
  22.100  879.490
  22.200  695.951
  22.300  913.489
  22.400  733.157
  22.500  957.226
  22.600  860.538
  22.700 1021.976
  22.800 1130.820
  22.900 1298.984
  23.000 1423.199
  23.100 1710.478
  23.200 1202.237
  23.300 1040.434
  23.400  933.825
  23.500  978.761
  23.600  895.692
  23.700 1127.994
  23.800 1302.232
  23.900 1520.597
  24.000 1537.235
  24.100 1340.098
  24.200 1201.011
  24.300 1101.329
  24.400  890.461
  24.500  833.351
  24.600  785.216
  24.700  803.195
  24.800  700.567
  24.900  846.079
  25.000  977.409
  25.100  998.696
  25.200  970.253
  25.300 1074.154
  25.400 1069.839
  25.500 1472.169
  25.600 1720.193
  25.700 1675.682
  25.800 1419.157
  25.900 1048.656
  26.000 1030.675
  26.100  946.580
  26.200  874.409
  26.300 1001.722
  26.400  958.313
  26.500 1014.952
  26.600 1451.869
  26.700 1806.523
  26.800 2255.165
  26.900 2414.920
  27.000 1927.273
  27.100 1411.170
  27.200 1023.137
  27.300 1058.531
  27.400  861.569
  27.500 1001.519
  27.600  951.767
  27.700 1118.420
  27.800 1236.737
  27.900 1333.898
  28.000 1754.121
  28.100 1497.758
  28.200 1125.150
  28.300  967.272
  28.400  916.233
  28.500  762.249
  28.600  845.236
  28.700  951.903
  28.800  970.000
  28.900  865.254
  29.000  971.574
  29.100  724.869
  29.200  872.791
  29.300  821.949
  29.400  803.130
  29.500  822.755
  29.600  871.442
  29.700  933.607
  29.800 1184.381
  29.900 1314.030
  30.000 1471.880
  30.100 1461.807
  30.200 1182.948
  30.300  994.499
  30.400  741.665
  30.500  787.867
  30.600  730.682
  30.700  754.323
  30.800  793.777
  30.900  678.406
  31.000  727.650
  31.100 1070.559
  31.200 1156.216
  31.300 1345.065
  31.400 1463.903
  31.500 1421.110
  31.600 1389.854
  31.700 1368.406
  31.800 1334.280
  31.900 1059.105
  32.000  926.521
  32.100 1214.825
  32.200 1090.001
  32.300 1049.975
  32.400  720.290
  32.500  748.364
  32.600  830.913
  32.700  811.820
  32.800  676.834
  32.900  765.321
  33.000  641.252
  33.100  606.661
  33.200  608.848
  33.300  656.383
  33.400  768.429
  33.500  644.147
  33.600  711.805
  33.700  618.553
  33.800  620.203
  33.900  738.284
  34.000  765.146
  34.100  835.247
  34.200  654.457
  34.300  693.425
  34.400  860.403
  34.500  774.556
  34.600 1104.454
  34.700 1474.123
  34.800 1638.344
  34.900 1901.750
  35.000 2091.420
  35.100 2627.747
  35.200 2803.258
  35.300 2214.933
  35.400 1282.204
  35.500  969.658
  35.600  973.235
  35.700  840.835
  35.800  781.262
  35.900  712.989
  36.000  902.881
  36.100  860.482
  36.200  766.001
  36.300  894.004
  36.400  795.546
  36.500  934.579
  36.600 1173.789
  36.700 1053.278
  36.800  894.986
  36.900  942.389
  37.000  792.422
  37.100  831.663
  37.200  745.829
  37.300  743.604
  37.400  797.398
  37.500  783.477
  37.600  862.808
  37.700  995.823
  37.800 1075.465
  37.900 1212.822
  38.000 1225.467
  38.100 1028.490
  38.200  777.867
  38.300  783.544
  38.400  675.085
  38.500  792.631
  38.600  522.877
  38.700  643.566
  38.800  546.520
  38.900  584.885
  39.000  622.784
  39.100  569.583
  39.200  613.944
  39.300  667.362
  39.400  702.272
  39.500  526.068
  39.600  582.257
  39.700  756.416
  39.800  654.957
  39.900  716.687
  40.000  626.621
  40.100  870.729
  40.200  796.831
  40.300  839.196
  40.400  913.597
  40.500  872.912
  40.600  787.932
  40.700  779.823
  40.800  874.367
  40.900  789.660
  41.000  726.959
  41.100  926.852
  41.200  747.789
  41.300  677.355
  41.400  778.712
  41.500  737.215
  41.600  671.448
  41.700  750.173
  41.800  630.515
  41.900  797.014
  42.000  643.334
  42.100  746.025
  42.200  948.034
  42.300  917.556
  42.400 1084.623
  42.500 1068.911
  42.600 1146.152
  42.700 1050.224
  42.800  665.469
  42.900  734.192
  43.000  521.697
  43.100  499.615
  43.200  585.875
  43.300  430.921
  43.400  659.359
  43.500  630.898
  43.600  652.404
  43.700  555.293
  43.800  557.480
  43.900  513.426
  44.000  611.064