File: xrd_output/random_files/2M1-std-27.TXT
Sample
Comments
Filename	C:\WINDMAX\DATA\USERS\GEO\GEO_ER~1\Pyrenees\BULKMA~1\2M1-std2.raw
Goniometer	Ultima IV In-plane
Attachment	Auto sample changer (10 samples)
ScanningMode	2Theta/Theta
ScanningType	Continuos Scanning
X-Ray	40kV/44mA
DivSlit	2/3deg.
DivH.L.Slit	10mm
SctSlit	2/3deg.
RecSlit	0.3mm
Start	16
Stop	44
Step	0.02
Speed	0.3
Offset	0
  16.000  779.007
  16.100  844.255
  16.200  704.742
  16.300  559.802
  16.400  659.931
  16.500  761.790
  16.600  554.661
  16.700  710.043
  16.800  670.173
  16.900  703.118
  17.000  678.292
  17.100  520.709
  17.200  751.880
  17.300  710.949
  17.400  669.792
  17.500  632.015
  17.600  882.931
  17.700  857.524
  17.800  974.463
  17.900 1432.602
  18.000 1308.399
  18.100 1241.203
  18.200  865.441
  18.300  812.311
  18.400  870.537
  18.500  703.928
  18.600  682.082
  18.700  658.006
  18.800  779.852
  18.900  776.206
  19.000  628.300
  19.100  616.987
  19.200  826.912
  19.300  785.717
  19.400  887.298
  19.500  796.082
  19.600  963.645
  19.700 1285.597
  19.800 1589.378
  19.900 2119.776
  20.000 2745.567
  20.100 2282.771
  20.200 1425.319
  20.300 1096.942
  20.400  979.028
  20.500  985.727
  20.600  992.958
  20.700 1202.309
  20.800 1124.348
  20.900 1173.487
  21.000  845.267
  21.100  910.407
  21.200  809.052
  21.300  848.031
  21.400  915.103
  21.500  819.593
  21.600  944.050
  21.700 1138.222
  21.800 1121.307
  21.900  934.780
  22.000  798.205
  22.100  783.559
  22.200  761.208
  22.300  739.492
  22.400  924.123
  22.500  912.355
  22.600 1030.208
  22.700  869.268
  22.800 1121.930
  22.900 1216.367
  23.000 1407.344
  23.100 1739.965
  23.200 1289.353
  23.300 1011.045
  23.400  937.149
  23.500  894.798
  23.600  994.717
  23.700 1134.605
  23.800 1109.324
  23.900 1426.011
  24.000 1681.925
  24.100 1356.542
  24.200 1366.715
  24.300 1169.961
  24.400  839.223
  24.500  761.914
  24.600  797.472
  24.700  733.692
  24.800  818.654
  24.900  940.246
  25.000  868.543
  25.100 1026.649
  25.200 1165.801
  25.300 1040.281
  25.400 1255.710
  25.500 1348.865
  25.600 1567.631
  25.700 1730.141
  25.800 1349.589
  25.900 1025.422
  26.000  892.065
  26.100  859.149
  26.200  801.687
  26.300  814.067
  26.400  854.509
  26.500 1179.668
  26.600 1381.122
  26.700 1737.266
  26.800 2184.177
  26.900 2370.569
  27.000 1770.782
  27.100 1472.428
  27.200 1068.161
  27.300 1027.728
  27.400  910.589
  27.500  799.843
  27.600 1049.109
  27.700  923.786
  27.800 1106.603
  27.900 1373.830
  28.000 1668.438
  28.100 1452.892
  28.200 1220.926
  28.300 1129.292
  28.400  818.232
  28.500  847.555
  28.600  948.722
  28.700  898.833
  28.800  973.869
  28.900  810.381
  29.000  857.916
  29.100  783.340
  29.200  831.118
  29.300  711.586
  29.400  860.338
  29.500  711.179
  29.600  837.275
  29.700  952.945
  29.800 1142.327
  29.900 1313.283
  30.000 1589.660
  30.100 1394.864
  30.200 1211.270
  30.300  855.316
  30.400  918.127
  30.500  664.835
  30.600  748.725
  30.700  698.194
  30.800  668.565
  30.900  764.438
  31.000  729.637
  31.100  960.345
  31.200 1075.181
  31.300 1412.196
  31.400 1587.333
  31.500 1528.424
  31.600 1431.135
  31.700 1426.472
  31.800 1298.062
  31.900 1111.585
  32.000 1089.872
  32.100 1081.526
  32.200 1050.637
  32.300 1021.170
  32.400  913.987
  32.500  779.539
  32.600  864.625
  32.700  757.361
  32.800  719.010
  32.900  607.642
  33.000  732.016
  33.100  674.783
  33.200  748.670
  33.300  575.663
  33.400  773.826
  33.500  661.369
  33.600  605.855
  33.700  643.163
  33.800  565.454
  33.900  739.143
  34.000  720.602
  34.100  616.263
  34.200  756.267
  34.300  752.227
  34.400  688.464
  34.500  956.416
  34.600 1195.207
  34.700 1604.384
  34.800 1589.206
  34.900 1714.963
  35.000 2016.678
  35.100 2553.603
  35.200 2738.868
  35.300 2163.073
  35.400 1412.683
  35.500  897.443
  35.600  801.710
  35.700  688.213
  35.800  879.280
  35.900  799.712
  36.000  868.045
  36.100  755.748
  36.200  793.559
  36.300  910.928
  36.400  786.543
  36.500  969.872
  36.600  966.128
  36.700 1008.195
  36.800 1136.024
  36.900 1016.428
  37.000  938.416
  37.100  790.486
  37.200  804.041
  37.300  702.820
  37.400  916.636
  37.500  901.289
  37.600  811.142
  37.700 1048.705
  37.800  998.513
  37.900 1093.313
  38.000 1182.166
  38.100 1117.922
  38.200  775.039
  38.300  827.649
  38.400  861.947
  38.500  780.838
  38.600  612.446
  38.700  696.738
  38.800  668.207
  38.900  613.422
  39.000  524.557
  39.100  715.070
  39.200  659.207
  39.300  533.967
  39.400  625.702
  39.500  694.316
  39.600  738.785
  39.700  526.937
  39.800  579.427
  39.900  752.297
  40.000  589.686
  40.100  754.587
  40.200  888.514
  40.300  950.432
  40.400  765.614
  40.500  741.739
  40.600  811.033
  40.700  748.681
  40.800  873.889
  40.900  980.088
  41.000  912.571
  41.100  856.533
  41.200  756.500
  41.300  706.908
  41.400  851.067
  41.500  834.201
  41.600  648.557
  41.700  821.978
  41.800  656.358
  41.900  762.925
  42.000  646.677
  42.100  853.555
  42.200  885.944
  42.300 1035.563
  42.400 1002.767
  42.500 1024.549
  42.600 1166.588
  42.700  868.872
  42.800  754.693
  42.900  633.262
  43.000  528.066
  43.100  461.182
  43.200  540.738
  43.300  614.108
  43.400  447.602
  43.500  585.432
  43.600  636.686
  43.700  620.888
  43.800  665.492
  43.900  613.847
  44.000  659.457