File: xrd_output/random_files/2M1-std-17.TXT
Sample
Comments
Filename	C:\WINDMAX\DATA\USERS\GEO\GEO_ER~1\Pyrenees\BULKMA~1\2M1-std2.raw
Goniometer	Ultima IV In-plane
Attachment	Auto sample changer (10 samples)
ScanningMode	2Theta/Theta
ScanningType	Continuos Scanning
X-Ray	40kV/44mA
DivSlit	2/3deg.
DivH.L.Slit	10mm
SctSlit	2/3deg.
RecSlit	0.3mm
Start	16
Stop	44
Step	0.02
Speed	0.3
Offset	0
  16.000  802.488
  16.100  783.764
  16.200  790.326
  16.300  736.156
  16.400  672.594
  16.500  537.858
  16.600  699.207
  16.700  703.223
  16.800  651.008
  16.900  607.574
  17.000  656.934
  17.100  615.888
  17.200  625.001
  17.300  527.964
  17.400  649.865
  17.500  660.685
  17.600  716.263
  17.700  896.251
  17.800  987.223
  17.900 1421.780
  18.000 1373.229
  18.100 1252.673
  18.200  864.520
  18.300  716.478
  18.400  763.718
  18.500  845.211
  18.600  791.829
  18.700  658.870
  18.800  715.153
  18.900  683.543
  19.000  717.866
  19.100  786.788
  19.200  657.458
  19.300  852.499
  19.400  893.592
  19.500  766.310
  19.600  905.890
  19.700 1134.081
  19.800 1471.909
  19.900 2316.136
  20.000 2674.341
  20.100 2460.927
  20.200 1509.644
  20.300 1177.650
  20.400 1135.154
  20.500  863.552
  20.600  974.743
  20.700 1006.127
  20.800 1136.112
  20.900 1140.043
  21.000  957.155
  21.100  831.568
  21.200  896.496
  21.300  828.852
  21.400  725.254
  21.500 1031.280
  21.600  945.210
  21.700 1123.121
  21.800 1032.901
  21.900  851.376
  22.000  779.429
  22.100  695.375
  22.200  668.491
  22.300  768.373
  22.400  964.723
  22.500  791.316
  22.600  826.847
  22.700  887.553
  22.800 1003.606
  22.900 1204.530
  23.000 1495.637
  23.100 1583.290
  23.200 1246.965
  23.300 1004.241
  23.400  911.074
  23.500  873.695
  23.600  943.471
  23.700 1070.334
  23.800 1073.332
  23.900 1359.532
  24.000 1487.482
  24.100 1440.589
  24.200 1321.736
  24.300 1223.381
  24.400 1024.738
  24.500  749.475
  24.600  818.192
  24.700  930.667
  24.800  730.854
  24.900  820.370
  25.000  788.003
  25.100  929.739
  25.200 1203.492
  25.300 1138.444
  25.400 1093.313
  25.500 1377.528
  25.600 1652.250
  25.700 1631.906
  25.800 1204.915
  25.900 1077.995
  26.000  960.024
  26.100  931.606
  26.200  751.191
  26.300  816.186
  26.400 1020.325
  26.500 1013.381
  26.600 1332.761
  26.700 1934.570
  26.800 2147.696
  26.900 2241.776
  27.000 1778.460
  27.100 1370.947
  27.200 1111.981
  27.300  889.319
  27.400  792.185
  27.500  954.328
  27.600  859.265
  27.700  936.413
  27.800 1217.943
  27.900 1457.308
  28.000 1679.775
  28.100 1453.461
  28.200 1178.092
  28.300 1027.373
  28.400  949.463
  28.500 1007.996
  28.600  883.572
  28.700 1044.609
  28.800  915.660
  28.900  990.333
  29.000  893.863
  29.100  755.805
  29.200  678.571
  29.300  691.472
  29.400  654.482
  29.500  846.789
  29.600  835.765
  29.700  913.633
  29.800 1188.231
  29.900 1305.539
  30.000 1663.683
  30.100 1482.274
  30.200 1210.247
  30.300  777.675
  30.400  745.823
  30.500  768.641
  30.600  652.402
  30.700  606.180
  30.800  650.327
  30.900  749.909
  31.000  790.547
  31.100 1059.585
  31.200 1038.104
  31.300 1521.140
  31.400 1481.481
  31.500 1485.274
  31.600 1555.596
  31.700 1522.300
  31.800 1249.272
  31.900 1254.443
  32.000 1098.398
  32.100 1059.397
  32.200 1103.092
  32.300  949.643
  32.400  900.398
  32.500  716.338
  32.600  837.780
  32.700  616.586
  32.800  735.970
  32.900  678.671
  33.000  660.448
  33.100  569.278
  33.200  703.442
  33.300  744.802
  33.400  667.086
  33.500  689.600
  33.600  507.102
  33.700  754.094
  33.800  572.453
  33.900  756.561
  34.000  693.485
  34.100  844.256
  34.200  885.680
  34.300  703.070
  34.400  820.620
  34.500 1021.477
  34.600 1150.063
  34.700 1428.203
  34.800 1774.187
  34.900 1888.017
  35.000 2041.905
  35.100 2755.045
  35.200 2903.483
  35.300 2137.200
  35.400 1438.149
  35.500 1042.145
  35.600  802.973
  35.700  879.063
  35.800  782.214
  35.900  724.787
  36.000  923.612
  36.100  805.267
  36.200  839.133
  36.300  743.223
  36.400  949.907
  36.500  860.643
  36.600 1149.515
  36.700 1177.152
  36.800 1112.593
  36.900  872.187
  37.000  910.527
  37.100  834.267
  37.200  875.353
  37.300  780.463
  37.400  895.236
  37.500  906.106
  37.600  969.587
  37.700  915.243
  37.800 1143.493
  37.900 1296.849
  38.000 1173.817
  38.100  927.006
  38.200  855.909
  38.300  894.853
  38.400  640.290
  38.500  606.587
  38.600  523.477
  38.700  660.832
  38.800  524.787
  38.900  650.522
  39.000  731.875
  39.100  542.987
  39.200  664.185
  39.300  515.289
  39.400  626.521
  39.500  658.494
  39.600  730.321
  39.700  653.101
  39.800  511.429
  39.900  738.325
  40.000  577.522
  40.100  751.300
  40.200  911.384
  40.300  854.814
  40.400  963.872
  40.500  761.559
  40.600  928.049
  40.700  676.435
  40.800  863.145
  40.900  764.282
  41.000  904.974
  41.100  796.115
  41.200  680.499
  41.300  671.189
  41.400  917.677
  41.500  728.737
  41.600  616.183
  41.700  745.542
  41.800  597.983
  41.900  789.288
  42.000  652.417
  42.100  868.863
  42.200  848.013
  42.300  842.098
  42.400 1072.559
  42.500 1058.312
  42.600 1005.627
  42.700  928.553
  42.800  885.354
  42.900  619.983
  43.000  627.047
  43.100  455.705
  43.200  580.734
  43.300  503.348
  43.400  426.477
  43.500  470.153
  43.600  496.418
  43.700  555.023
  43.800  555.612
  43.900  594.553
  44.000  505.658