File: xrd_output/random_files/2M1-std-43.TXT
Sample
Comments
Filename	C:\WINDMAX\DATA\USERS\GEO\GEO_ER~1\Pyrenees\BULKMA~1\2M1-std2.raw
Goniometer	Ultima IV In-plane
Attachment	Auto sample changer (10 samples)
ScanningMode	2Theta/Theta
ScanningType	Continuos Scanning
X-Ray	40kV/44mA
DivSlit	2/3deg.
DivH.L.Slit	10mm
SctSlit	2/3deg.
RecSlit	0.3mm
Start	16
Stop	44
Step	0.02
Speed	0.3
Offset	0
  16.000  588.366
  16.100  627.911
  16.200  697.554
  16.300  634.527
  16.400  692.125
  16.500  683.449
  16.600  644.908
  16.700  534.196
  16.800  694.755
  16.900  631.360
  17.000  717.578
  17.100  742.957
  17.200  764.455
  17.300  611.719
  17.400  764.824
  17.500  586.469
  17.600  686.465
  17.700  938.603
  17.800 1105.284
  17.900 1409.490
  18.000 1390.230
  18.100 1099.158
  18.200  945.625
  18.300  767.055
  18.400  776.503
  18.500  618.755
  18.600  731.054
  18.700  804.984
  18.800  854.675
  18.900  698.817
  19.000  695.150
  19.100  637.979
  19.200  797.406
  19.300  708.857
  19.400  655.811
  19.500  828.065
  19.600  914.547
  19.700 1262.952
  19.800 1624.649
  19.900 2297.954
  20.000 2618.527
  20.100 2446.972
  20.200 1609.162
  20.300 1279.979
  20.400 1209.770
  20.500  922.100
  20.600  943.637
  20.700 1216.093
  20.800 1294.627
  20.900 1007.587
  21.000  963.456
  21.100  723.474
  21.200  804.346
  21.300  790.335
  21.400  831.303
  21.500  948.006
  21.600  994.745
  21.700  988.530
  21.800  938.264
  21.900  962.400
  22.000  768.783
  22.100  831.384
  22.200  753.543
  22.300  901.197
  22.400  813.665
  22.500  887.374
  22.600  789.835
  22.700  864.111
  22.800  979.024
  22.900 1310.869
  23.000 1662.630
  23.100 1723.043
  23.200 1439.553
  23.300  998.272
  23.400  871.488
  23.500  789.503
  23.600 1043.641
  23.700  880.890
  23.800 1178.652
  23.900 1482.335
  24.000 1529.054
  24.100 1458.538
  24.200 1196.414
  24.300 1051.359
  24.400  932.910
  24.500  737.588
  24.600  785.868
  24.700  924.809
  24.800  832.417
  24.900  890.225
  25.000  862.755
  25.100 1131.015
  25.200  961.823
  25.300 1163.907
  25.400 1079.670
  25.500 1390.034
  25.600 1564.901
  25.700 1713.064
  25.800 1417.404
  25.900 1123.170
  26.000  996.899
  26.100  920.126
  26.200  837.514
  26.300  953.067
  26.400  893.422
  26.500 1187.294
  26.600 1468.291
  26.700 1880.243
  26.800 2324.622
  26.900 2310.684
  27.000 1924.075
  27.100 1351.068
  27.200  992.470
  27.300  857.053
  27.400  933.413
  27.500  992.877
  27.600 1028.051
  27.700 1001.835
  27.800 1216.392
  27.900 1332.058
  28.000 1810.498
  28.100 1526.091
  28.200 1203.123
  28.300 1161.725
  28.400  937.647
  28.500  859.080
  28.600  815.036
  28.700  877.708
  28.800  965.634
  28.900  998.310
  29.000  963.735
  29.100  861.822
  29.200  649.196
  29.300  786.085
  29.400  847.889
  29.500  805.276
  29.600  725.407
  29.700 1017.675
  29.800 1022.369
  29.900 1453.005
  30.000 1486.593
  30.100 1378.432
  30.200 1149.013
  30.300  919.288
  30.400  678.490
  30.500  677.894
  30.600  717.228
  30.700  714.867
  30.800  658.104
  30.900  758.513
  31.000  940.032
  31.100  953.690
  31.200 1077.108
  31.300 1318.176
  31.400 1504.642
  31.500 1587.363
  31.600 1599.063
  31.700 1448.415
  31.800 1283.021
  31.900 1062.798
  32.000  992.991
  32.100 1215.708
  32.200 1110.211
  32.300 1169.806
  32.400  735.547
  32.500  857.339
  32.600  789.986
  32.700  677.457
  32.800  767.076
  32.900  627.779
  33.000  688.814
  33.100  803.919
  33.200  576.116
  33.300  524.085
  33.400  765.497
  33.500  570.834
  33.600  677.074
  33.700  698.565
  33.800  765.690
  33.900  660.956
  34.000  599.022
  34.100  829.152
  34.200  775.332
  34.300  649.310
  34.400  858.532
  34.500  911.856
  34.600 1225.618
  34.700 1612.213
  34.800 1681.201
  34.900 1864.452
  35.000 2119.594
  35.100 2587.519
  35.200 2919.617
  35.300 2014.059
  35.400 1382.389
  35.500  998.049
  35.600 1013.257
  35.700  871.473
  35.800  884.862
  35.900  908.764
  36.000  765.123
  36.100  810.062
  36.200  840.501
  36.300  747.905
  36.400  859.276
  36.500 1085.169
  36.600 1106.837
  36.700 1012.561
  36.800  941.239
  36.900  967.515
  37.000  871.370
  37.100  747.467
  37.200  694.249
  37.300  748.436
  37.400  726.262
  37.500  941.668
  37.600  897.911
  37.700 1122.240
  37.800 1085.513
  37.900 1148.147
  38.000 1185.040
  38.100  887.468
  38.200  788.246
  38.300  914.659
  38.400  830.204
  38.500  821.706
  38.600  747.510
  38.700  504.773
  38.800  719.080
  38.900  488.093
  39.000  554.966
  39.100  609.402
  39.200  738.400
  39.300  684.581
  39.400  504.803
  39.500  575.835
  39.600  733.583
  39.700  525.354
  39.800  641.453
  39.900  585.076
  40.000  653.554
  40.100  892.721
  40.200  748.288
  40.300  942.416
  40.400  765.561
  40.500  874.562
  40.600  762.245
  40.700  711.028
  40.800  701.491
  40.900  954.559
  41.000  731.965
  41.100  946.209
  41.200  830.592
  41.300  706.449
  41.400  673.838
  41.500  644.834
  41.600  777.528
  41.700  761.294
  41.800  619.474
  41.900  813.523
  42.000  785.916
  42.100  768.905
  42.200  793.752
  42.300  899.294
  42.400  975.815
  42.500 1147.115
  42.600 1111.324
  42.700  995.554
  42.800  902.650
  42.900  670.620
  43.000  673.893
  43.100  620.559
  43.200  437.665
  43.300  476.323
  43.400  656.416
  43.500  513.917
  43.600  487.029
  43.700  478.196
  43.800  572.498
  43.900  608.827
  44.000  609.034