File: xrd_output/random_files/2M1-std-6.TXT
Sample
Comments
Filename	C:\WINDMAX\DATA\USERS\GEO\GEO_ER~1\Pyrenees\BULKMA~1\2M1-std2.raw
Goniometer	Ultima IV In-plane
Attachment	Auto sample changer (10 samples)
ScanningMode	2Theta/Theta
ScanningType	Continuos Scanning
X-Ray	40kV/44mA
DivSlit	2/3deg.
DivH.L.Slit	10mm
SctSlit	2/3deg.
RecSlit	0.3mm
Start	16
Stop	44
Step	0.02
Speed	0.3
Offset	0
  16.000  806.768
  16.100  760.222
  16.200  771.518
  16.300  629.118
  16.400  647.244
  16.500  538.578
  16.600  516.583
  16.700  765.124
  16.800  776.962
  16.900  688.809
  17.000  512.248
  17.100  632.702
  17.200  616.325
  17.300  738.105
  17.400  703.396
  17.500  658.700
  17.600  855.509
  17.700  833.680
  17.800 1108.700
  17.900 1315.548
  18.000 1431.760
  18.100 1058.910
  18.200  853.944
  18.300  718.480
  18.400  652.411
  18.500  813.029
  18.600  767.877
  18.700  622.331
  18.800  827.188
  18.900  576.699
  19.000  705.377
  19.100  654.058
  19.200  816.577
  19.300  742.216
  19.400  631.595
  19.500  667.908
  19.600  959.388
  19.700 1280.229
  19.800 1548.268
  19.900 2309.148
  20.000 2755.530
  20.100 2461.185
  20.200 1385.946
  20.300 1295.120
  20.400 1004.953
  20.500  979.494
  20.600 1066.609
  20.700 1121.661
  20.800 1247.451
  20.900 1032.234
  21.000  992.231
  21.100  745.870
  21.200  842.384
  21.300  784.567
  21.400  833.549
  21.500 1016.746
  21.600 1012.685
  21.700 1179.270
  21.800 1061.039
  21.900  874.828
  22.000  878.839
  22.100  852.177
  22.200  880.457
  22.300  890.424
  22.400  844.016
  22.500  782.653
  22.600 1027.416
  22.700  821.056
  22.800  992.372
  22.900 1304.956
  23.000 1468.221
  23.100 1703.186
  23.200 1266.494
  23.300 1004.673
  23.400  796.629
  23.500  816.843
  23.600  860.500
  23.700  891.633
  23.800 1060.832
  23.900 1521.545
  24.000 1525.336
  24.100 1549.078
  24.200 1201.399
  24.300 1025.084
  24.400  927.598
  24.500  893.590
  24.600  852.006
  24.700  783.468
  24.800  800.662
  24.900  961.904
  25.000  960.668
  25.100 1120.858
  25.200 1146.086
  25.300 1251.046
  25.400 1301.544
  25.500 1342.149
  25.600 1772.641
  25.700 1545.057
  25.800 1291.013
  25.900  948.423
  26.000  802.061
  26.100  949.719
  26.200  966.313
  26.300  842.692
  26.400  932.095
  26.500 1147.277
  26.600 1282.272
  26.700 1710.558
  26.800 2360.321
  26.900 2356.520
  27.000 1750.364
  27.100 1324.120
  27.200  956.678
  27.300  950.569
  27.400  844.820
  27.500  919.618
  27.600 1075.891
  27.700  894.629
  27.800 1277.748
  27.900 1375.370
  28.000 1589.340
  28.100 1488.668
  28.200 1233.185
  28.300 1001.473
  28.400  966.298
  28.500  961.459
  28.600  878.746
  28.700  893.853
  28.800  966.809
  28.900  945.299
  29.000  858.835
  29.100  859.822
  29.200  737.992
  29.300  737.990
  29.400  779.296
  29.500  783.053
  29.600  913.900
  29.700  862.805
  29.800  944.589
  29.900 1421.300
  30.000 1594.815
  30.100 1408.515
  30.200 1135.708
  30.300  881.987
  30.400  775.444
  30.500  661.879
  30.600  708.986
  30.700  623.407
  30.800  767.969
  30.900  649.934
  31.000  698.809
  31.100  949.626
  31.200 1066.360
  31.300 1328.974
  31.400 1650.334
  31.500 1477.208
  31.600 1395.978
  31.700 1523.317
  31.800 1247.533
  31.900 1155.812
  32.000 1139.579
  32.100 1045.023
  32.200 1231.717
  32.300 1099.369
  32.400  825.256
  32.500  700.137
  32.600  654.531
  32.700  799.071
  32.800  762.013
  32.900  613.548
  33.000  722.754
  33.100  737.338
  33.200  636.565
  33.300  719.676
  33.400  734.188
  33.500  566.977
  33.600  721.739
  33.700  675.319
  33.800  554.426
  33.900  666.289
  34.000  757.308
  34.100  825.289
  34.200  824.181
  34.300  685.894
  34.400  718.373
  34.500 1004.126
  34.600 1106.188
  34.700 1455.820
  34.800 1653.920
  34.900 1889.465
  35.000 1977.702
  35.100 2747.248
  35.200 2909.916
  35.300 2076.884
  35.400 1518.353
  35.500  895.341
  35.600  986.462
  35.700  923.387
  35.800  738.466
  35.900  906.291
  36.000  796.279
  36.100  726.955
  36.200  936.301
  36.300  892.204
  36.400  784.534
  36.500  854.033
  36.600 1018.886
  36.700 1161.526
  36.800 1033.032
  36.900 1063.587
  37.000 1004.720
  37.100  935.639
  37.200  653.618
  37.300  851.588
  37.400  704.735
  37.500  814.443
  37.600  853.570
  37.700 1155.648
  37.800 1234.691
  37.900 1177.075
  38.000 1284.740
  38.100 1143.276
  38.200  947.444
  38.300  921.602
  38.400  849.088
  38.500  715.747
  38.600  664.104
  38.700  710.519
  38.800  575.442
  38.900  508.035
  39.000  554.260
  39.100  550.863
  39.200  641.923
  39.300  516.892
  39.400  626.049
  39.500  673.905
  39.600  489.646
  39.700  556.278
  39.800  632.879
  39.900  584.716
  40.000  701.062
  40.100  761.725
  40.200  868.270
  40.300  861.278
  40.400  758.724
  40.500  826.059
  40.600  847.335
  40.700  737.513
  40.800  886.481
  40.900  836.049
  41.000  843.158
  41.100  750.131
  41.200  813.295
  41.300  694.320
  41.400  780.069
  41.500  905.456
  41.600  842.814
  41.700  702.656
  41.800  646.160
  41.900  685.832
  42.000  810.952
  42.100  953.942
  42.200  824.654
  42.300  949.311
  42.400 1070.914
  42.500  922.608
  42.600 1051.588
  42.700 1038.518
  42.800  837.869
  42.900  696.109
  43.000  746.245
  43.100  653.984
  43.200  601.219
  43.300  604.004
  43.400  486.729
  43.500  591.147
  43.600  629.802
  43.700  669.665
  43.800  535.208
  43.900  644.601
  44.000  484.872