File: xrd_output/random_files/2M1-std-12.TXT
Sample
Comments
Filename	C:\WINDMAX\DATA\USERS\GEO\GEO_ER~1\Pyrenees\BULKMA~1\2M1-std2.raw
Goniometer	Ultima IV In-plane
Attachment	Auto sample changer (10 samples)
ScanningMode	2Theta/Theta
ScanningType	Continuos Scanning
X-Ray	40kV/44mA
DivSlit	2/3deg.
DivH.L.Slit	10mm
SctSlit	2/3deg.
RecSlit	0.3mm
Start	16
Stop	44
Step	0.02
Speed	0.3
Offset	0
  16.000  765.542
  16.100  821.643
  16.200  682.776
  16.300  732.032
  16.400  520.243
  16.500  667.001
  16.600  582.977
  16.700  683.295
  16.800  705.958
  16.900  576.368
  17.000  549.473
  17.100  656.817
  17.200  727.130
  17.300  638.309
  17.400  589.765
  17.500  705.399
  17.600  894.142
  17.700 1032.566
  17.800 1203.472
  17.900 1399.860
  18.000 1427.691
  18.100 1100.996
  18.200 1004.340
  18.300  849.725
  18.400  832.279
  18.500  665.791
  18.600  638.239
  18.700  740.404
  18.800  757.765
  18.900  664.620
  19.000  749.384
  19.100  625.268
  19.200  780.802
  19.300  794.370
  19.400  761.981
  19.500  722.386
  19.600  872.297
  19.700 1169.408
  19.800 1426.232
  19.900 2242.746
  20.000 2773.888
  20.100 2251.624
  20.200 1530.385
  20.300 1154.053
  20.400 1018.567
  20.500  896.111
  20.600  891.170
  20.700 1065.564
  20.800 1348.450
  20.900 1014.617
  21.000  970.558
  21.100  875.809
  21.200  915.867
  21.300  724.112
  21.400  822.572
  21.500  965.412
  21.600 1104.955
  21.700 1183.039
  21.800 1017.458
  21.900  809.370
  22.000  866.802
  22.100  821.868
  22.200  740.240
  22.300  711.294
  22.400  752.811
  22.500  941.312
  22.600  817.328
  22.700  912.568
  22.800 1107.257
  22.900 1163.797
  23.000 1668.095
  23.100 1557.680
  23.200 1241.741
  23.300  925.824
  23.400  827.068
  23.500  963.898
  23.600 1019.907
  23.700  889.851
  23.800 1141.174
  23.900 1344.542
  24.000 1689.998
  24.100 1496.276
  24.200 1198.605
  24.300 1030.965
  24.400  943.528
  24.500  715.500
  24.600  832.466
  24.700  728.537
  24.800  770.453
  24.900  928.681
  25.000  876.877
  25.100 1013.883
  25.200  982.809
  25.300 1066.355
  25.400 1189.485
  25.500 1416.658
  25.600 1672.538
  25.700 1706.324
  25.800 1347.093
  25.900  968.427
  26.000  932.724
  26.100  899.888
  26.200  915.024
  26.300  814.227
  26.400  930.541
  26.500 1210.930
  26.600 1366.158
  26.700 1755.707
  26.800 2229.709
  26.900 2276.864
  27.000 1955.560
  27.100 1284.871
  27.200  974.254
  27.300 1081.058
  27.400 1001.170
  27.500  906.251
  27.600 1046.872
  27.700 1129.322
  27.800 1214.220
  27.900 1556.979
  28.000 1673.190
  28.100 1515.944
  28.200 1190.459
  28.300  970.820
  28.400  897.364
  28.500  881.385
  28.600  958.603
  28.700  822.014
  28.800  981.188
  28.900  948.861
  29.000  818.820
  29.100  774.963
  29.200  885.315
  29.300  679.400
  29.400  667.656
  29.500  762.531
  29.600  736.246
  29.700  987.816
  29.800 1094.575
  29.900 1261.375
  30.000 1575.912
  30.100 1536.667
  30.200 1051.636
  30.300  907.843
  30.400  735.184
  30.500  823.140
  30.600  643.089
  30.700  785.894
  30.800  600.573
  30.900  822.699
  31.000  924.544
  31.100  887.179
  31.200 1215.001
  31.300 1348.721
  31.400 1629.692
  31.500 1510.910
  31.600 1348.457
  31.700 1513.742
  31.800 1394.090
  31.900 1052.731
  32.000  980.657
  32.100 1157.682
  32.200 1282.874
  32.300 1119.656
  32.400  790.242
  32.500  791.795
  32.600  725.532
  32.700  642.450
  32.800  725.636
  32.900  570.866
  33.000  785.408
  33.100  630.936
  33.200  717.875
  33.300  601.059
  33.400  748.561
  33.500  738.879
  33.600  666.527
  33.700  754.761
  33.800  589.683
  33.900  619.821
  34.000  809.333
  34.100  690.586
  34.200  688.503
  34.300  861.850
  34.400  747.436
  34.500  801.060
  34.600 1099.468
  34.700 1632.153
  34.800 1675.420
  34.900 1794.135
  35.000 2097.099
  35.100 2537.320
  35.200 2775.005
  35.300 2131.289
  35.400 1461.689
  35.500  986.530
  35.600 1007.988
  35.700  827.739
  35.800  673.636
  35.900  875.921
  36.000  753.012
  36.100  773.516
  36.200  965.924
  36.300  862.734
  36.400  920.216
  36.500 1068.037
  36.600 1150.970
  36.700 1081.189
  36.800 1065.156
  36.900 1087.408
  37.000  841.226
  37.100  840.987
  37.200  752.653
  37.300  825.873
  37.400  798.142
  37.500  742.970
  37.600  841.883
  37.700  923.392
  37.800 1090.466
  37.900 1078.315
  38.000 1255.625
  38.100 1056.757
  38.200  798.179
  38.300  859.105
  38.400  760.789
  38.500  632.459
  38.600  550.995
  38.700  539.438
  38.800  697.897
  38.900  706.488
  39.000  615.623
  39.100  663.009
  39.200  703.793
  39.300  681.775
  39.400  630.417
  39.500  615.514
  39.600  547.723
  39.700  709.733
  39.800  590.909
  39.900  522.958
  40.000  588.866
  40.100  657.536
  40.200  754.424
  40.300  944.754
  40.400  904.619
  40.500  915.104
  40.600  828.191
  40.700  694.981
  40.800  890.304
  40.900  873.597
  41.000  985.989
  41.100  913.360
  41.200  841.478
  41.300  875.937
  41.400  774.708
  41.500  686.577
  41.600  861.858
  41.700  713.765
  41.800  778.202
  41.900  834.719
  42.000  745.068
  42.100  892.798
  42.200  853.267
  42.300  880.790
  42.400  983.637
  42.500 1125.087
  42.600 1059.351
  42.700 1102.690
  42.800  796.629
  42.900  719.199
  43.000  720.897
  43.100  531.941
  43.200  499.005
  43.300  585.194
  43.400  648.401
  43.500  555.269
  43.600  506.771
  43.700  489.468
  43.800  668.155
  43.900  485.142
  44.000  618.960