File: xrd_output/random_files/2M1-std-47.TXT
Sample
Comments
Filename	C:\WINDMAX\DATA\USERS\GEO\GEO_ER~1\Pyrenees\BULKMA~1\2M1-std2.raw
Goniometer	Ultima IV In-plane
Attachment	Auto sample changer (10 samples)
ScanningMode	2Theta/Theta
ScanningType	Continuos Scanning
X-Ray	40kV/44mA
DivSlit	2/3deg.
DivH.L.Slit	10mm
SctSlit	2/3deg.
RecSlit	0.3mm
Start	16
Stop	44
Step	0.02
Speed	0.3
Offset	0
  16.000  726.109
  16.100  698.468
  16.200  595.285
  16.300  647.591
  16.400  678.601
  16.500  709.098
  16.600  530.623
  16.700  671.983
  16.800  620.222
  16.900  723.721
  17.000  595.306
  17.100  596.278
  17.200  572.255
  17.300  672.856
  17.400  671.635
  17.500  635.033
  17.600  835.002
  17.700  895.466
  17.800 1092.069
  17.900 1372.316
  18.000 1262.879
  18.100 1260.627
  18.200  847.658
  18.300  738.789
  18.400  781.163
  18.500  684.059
  18.600  674.682
  18.700  753.313
  18.800  685.790
  18.900  657.566
  19.000  751.763
  19.100  596.651
  19.200  819.519
  19.300  852.661
  19.400  666.225
  19.500  847.993
  19.600  900.332
  19.700 1109.387
  19.800 1540.937
  19.900 2145.615
  20.000 2555.823
  20.100 2269.577
  20.200 1462.241
  20.300 1085.452
  20.400 1154.432
  20.500  941.417
  20.600  876.956
  20.700 1070.411
  20.800 1171.668
  20.900 1063.963
  21.000  817.773
  21.100  726.106
  21.200  667.370
  21.300  730.794
  21.400  725.537
  21.500  878.384
  21.600 1058.728
  21.700 1150.273
  21.800 1093.910
  21.900  868.730
  22.000  965.954
  22.100  924.612
  22.200  760.339
  22.300  901.899
  22.400  823.040
  22.500  785.840
  22.600  881.295
  22.700  979.215
  22.800  904.968
  22.900 1309.349
  23.000 1645.890
  23.100 1500.697
  23.200 1312.448
  23.300  930.300
  23.400  801.261
  23.500  910.707
  23.600  910.264
  23.700 1025.673
  23.800 1177.841
  23.900 1387.319
  24.000 1556.716
  24.100 1329.628
  24.200 1288.808
  24.300 1171.574
  24.400 1074.149
  24.500  840.488
  24.600  893.029
  24.700  769.956
  24.800  700.039
  24.900  866.730
  25.000 1024.718
  25.100  976.625
  25.200 1202.074
  25.300 1079.026
  25.400 1319.673
  25.500 1354.510
  25.600 1735.240
  25.700 1538.055
  25.800 1364.095
  25.900 1091.409
  26.000  832.686
  26.100  902.258
  26.200  739.244
  26.300 1004.604
  26.400  914.524
  26.500 1014.845
  26.600 1311.594
  26.700 1869.720
  26.800 2304.790
  26.900 2377.199
  27.000 1757.801
  27.100 1374.573
  27.200  961.641
  27.300  890.862
  27.400  999.555
  27.500 1016.708
  27.600 1049.316
  27.700  960.544
  27.800 1138.428
  27.900 1570.956
  28.000 1622.538
  28.100 1470.525
  28.200 1358.475
  28.300 1031.891
  28.400  853.232
  28.500  899.423
  28.600  911.267
  28.700 1029.918
  28.800  816.804
  28.900  792.576
  29.000  741.299
  29.100  965.846
  29.200  675.442
  29.300  651.009
  29.400  779.111
  29.500  848.892
  29.600  736.407
  29.700 1029.080
  29.800 1089.854
  29.900 1215.440
  30.000 1479.197
  30.100 1533.664
  30.200 1146.600
  30.300  905.233
  30.400  860.786
  30.500  618.391
  30.600  766.837
  30.700  645.091
  30.800  678.965
  30.900  843.866
  31.000  858.270
  31.100  932.291
  31.200 1170.809
  31.300 1440.897
  31.400 1665.386
  31.500 1572.470
  31.600 1445.827
  31.700 1368.441
  31.800 1307.934
  31.900 1193.265
  32.000 1098.891
  32.100 1087.668
  32.200 1219.485
  32.300 1197.853
  32.400  889.858
  32.500  850.032
  32.600  656.816
  32.700  585.617
  32.800  765.226
  32.900  584.675
  33.000  721.554
  33.100  572.579
  33.200  578.836
  33.300  644.978
  33.400  584.024
  33.500  664.329
  33.600  657.793
  33.700  639.657
  33.800  639.177
  33.900  563.598
  34.000  774.654
  34.100  608.543
  34.200  799.173
  34.300  849.166
  34.400  738.735
  34.500 1023.311
  34.600 1087.315
  34.700 1615.020
  34.800 1803.118
  34.900 1674.869
  35.000 2054.277
  35.100 2590.382
  35.200 2850.135
  35.300 2035.563
  35.400 1312.010
  35.500 1076.983
  35.600  848.828
  35.700  781.223
  35.800  680.461
  35.900  847.460
  36.000  894.713
  36.100  836.826
  36.200  911.656
  36.300  874.184
  36.400  811.154
  36.500  975.685
  36.600 1090.291
  36.700 1144.966
  36.800 1098.472
  36.900  928.199
  37.000  992.586
  37.100  817.837
  37.200  904.047
  37.300  657.166
  37.400  883.557
  37.500  816.055
  37.600  984.972
  37.700  916.168
  37.800 1008.333
  37.900 1262.210
  38.000 1291.509
  38.100 1052.045
  38.200  883.236
  38.300  831.109
  38.400  649.148
  38.500  738.914
  38.600  750.027
  38.700  737.157
  38.800  577.803
  38.900  663.735
  39.000  685.368
  39.100  547.327
  39.200  540.840
  39.300  587.723
  39.400  726.695
  39.500  726.249
  39.600  525.844
  39.700  747.630
  39.800  554.269
  39.900  533.539
  40.000  566.035
  40.100  646.195
  40.200  939.728
  40.300  977.509
  40.400  767.477
  40.500  826.235
  40.600  816.848
  40.700  660.842
  40.800  899.997
  40.900  779.372
  41.000  783.156
  41.100  755.447
  41.200  830.202
  41.300  768.997
  41.400  870.658
  41.500  807.205
  41.600  643.392
  41.700  693.328
  41.800  564.665
  41.900  624.226
  42.000  680.532
  42.100  789.705
  42.200  831.942
  42.300 1005.127
  42.400 1089.636
  42.500 1030.579
  42.600 1107.264
  42.700  882.383
  42.800  872.030
  42.900  640.200
  43.000  748.900
  43.100  581.214
  43.200  614.000
  43.300  526.465
  43.400  510.880
  43.500  500.315
  43.600  522.272
  43.700  506.037
  43.800  637.468
  43.900  591.292
  44.000  672.711