File: xrd_output/random_files/2M1-std-15.TXT
Sample
Comments
Filename	C:\WINDMAX\DATA\USERS\GEO\GEO_ER~1\Pyrenees\BULKMA~1\2M1-std2.raw
Goniometer	Ultima IV In-plane
Attachment	Auto sample changer (10 samples)
ScanningMode	2Theta/Theta
ScanningType	Continuos Scanning
X-Ray	40kV/44mA
DivSlit	2/3deg.
DivH.L.Slit	10mm
SctSlit	2/3deg.
RecSlit	0.3mm
Start	16
Stop	44
Step	0.02
Speed	0.3
Offset	0
  16.000  748.333
  16.100  796.164
  16.200  756.503
  16.300  639.358
  16.400  595.102
  16.500  699.105
  16.600  647.127
  16.700  698.766
  16.800  771.528
  16.900  534.157
  17.000  565.464
  17.100  730.894
  17.200  567.829
  17.300  732.628
  17.400  799.333
  17.500  585.954
  17.600  761.450
  17.700  854.253
  17.800 1171.089
  17.900 1434.130
  18.000 1419.865
  18.100 1175.197
  18.200  950.668
  18.300  635.772
  18.400  850.947
  18.500  854.594
  18.600  782.424
  18.700  740.938
  18.800  886.842
  18.900  772.454
  19.000  617.295
  19.100  620.437
  19.200  628.368
  19.300  832.898
  19.400  703.756
  19.500  885.635
  19.600  914.332
  19.700 1029.836
  19.800 1381.028
  19.900 2246.140
  20.000 2792.140
  20.100 2446.765
  20.200 1426.619
  20.300 1049.624
  20.400 1141.919
  20.500 1016.112
  20.600  896.634
  20.700 1059.108
  20.800 1214.251
  20.900  995.290
  21.000  800.338
  21.100  671.839
  21.200  657.369
  21.300  764.737
  21.400  699.747
  21.500  846.462
  21.600 1108.374
  21.700 1007.957
  21.800 1063.221
  21.900  828.406
  22.000  888.316
  22.100  691.227
  22.200  820.022
  22.300  698.930
  22.400  944.063
  22.500 1032.394
  22.600  926.950
  22.700  799.202
  22.800 1117.504
  22.900 1128.771
  23.000 1518.165
  23.100 1667.495
  23.200 1364.601
  23.300 1107.525
  23.400  910.438
  23.500  745.588
  23.600  837.788
  23.700 1133.089
  23.800 1285.764
  23.900 1340.620
  24.000 1690.420
  24.100 1407.726
  24.200 1424.651
  24.300 1146.694
  24.400 1017.393
  24.500  897.654
  24.600  754.514
  24.700  897.539
  24.800  811.101
  24.900  800.547
  25.000  833.960
  25.100 1077.797
  25.200 1078.502
  25.300 1033.070
  25.400 1077.546
  25.500 1516.256
  25.600 1705.747
  25.700 1657.965
  25.800 1316.901
  25.900 1028.930
  26.000  948.071
  26.100  853.986
  26.200  811.043
  26.300 1031.384
  26.400  924.850
  26.500 1198.611
  26.600 1353.545
  26.700 1847.898
  26.800 2336.975
  26.900 2329.036
  27.000 1786.444
  27.100 1354.226
  27.200 1213.962
  27.300  948.598
  27.400  891.434
  27.500  812.968
  27.600  966.234
  27.700 1122.983
  27.800 1163.653
  27.900 1407.138
  28.000 1815.861
  28.100 1650.902
  28.200 1354.312
  28.300  971.114
  28.400  860.845
  28.500  998.113
  28.600  804.519
  28.700  834.616
  28.800  981.739
  28.900  794.548
  29.000  833.431
  29.100  962.105
  29.200  812.557
  29.300  734.704
  29.400  758.583
  29.500  746.884
  29.600  843.653
  29.700  960.395
  29.800 1148.718
  29.900 1269.147
  30.000 1648.174
  30.100 1354.034
  30.200 1054.833
  30.300  783.304
  30.400  756.824
  30.500  776.662
  30.600  712.125
  30.700  778.241
  30.800  780.010
  30.900  744.272
  31.000  842.704
  31.100 1071.384
  31.200 1283.027
  31.300 1544.158
  31.400 1524.533
  31.500 1556.375
  31.600 1597.615
  31.700 1405.847
  31.800 1352.080
  31.900 1125.113
  32.000  976.921
  32.100 1112.162
  32.200 1250.128
  32.300 1009.589
  32.400  776.677
  32.500  832.408
  32.600  765.199
  32.700  734.289
  32.800  673.048
  32.900  596.177
  33.000  839.040
  33.100  760.164
  33.200  705.750
  33.300  559.860
  33.400  545.122
  33.500  572.871
  33.600  512.872
  33.700  563.672
  33.800  783.267
  33.900  576.175
  34.000  772.389
  34.100  780.533
  34.200  706.549
  34.300  775.710
  34.400  793.411
  34.500  989.735
  34.600 1085.008
  34.700 1432.978
  34.800 1679.071
  34.900 1729.446
  35.000 2006.447
  35.100 2736.702
  35.200 2793.298
  35.300 2088.582
  35.400 1448.491
  35.500 1123.992
  35.600  881.797
  35.700  884.688
  35.800  776.242
  35.900  909.654
  36.000  852.845
  36.100  808.406
  36.200  888.079
  36.300  738.739
  36.400  866.567
  36.500 1070.884
  36.600 1109.652
  36.700  936.549
  36.800 1125.525
  36.900 1017.337
  37.000 1039.303
  37.100  874.170
  37.200  893.053
  37.300  711.756
  37.400  904.661
  37.500  842.210
  37.600  816.199
  37.700 1015.726
  37.800 1189.472
  37.900 1312.705
  38.000 1167.411
  38.100 1042.569
  38.200  945.862
  38.300  813.087
  38.400  637.961
  38.500  824.992
  38.600  769.328
  38.700  696.433
  38.800  574.720
  38.900  684.277
  39.000  496.753
  39.100  599.441
  39.200  718.312
  39.300  678.246
  39.400  684.212
  39.500  562.424
  39.600  612.751
  39.700  536.410
  39.800  546.832
  39.900  741.565
  40.000  558.293
  40.100  823.161
  40.200  914.029
  40.300  991.933
  40.400  949.364
  40.500  804.114
  40.600  845.507
  40.700  744.116
  40.800  855.707
  40.900  772.149
  41.000  967.887
  41.100  863.087
  41.200  776.607
  41.300  785.031
  41.400  886.187
  41.500  758.391
  41.600  819.041
  41.700  669.717
  41.800  784.192
  41.900  794.014
  42.000  755.317
  42.100  961.514
  42.200  830.876
  42.300  944.746
  42.400 1056.446
  42.500 1035.134
  42.600 1109.398
  42.700  936.761
  42.800  677.467
  42.900  699.168
  43.000  722.650
  43.100  705.648
  43.200  667.350
  43.300  586.709
  43.400  457.548
  43.500  534.124
  43.600  459.894
  43.700  656.859
  43.800  579.219
  43.900  532.429
  44.000  691.127