File: xrd_output/random_files/2M1-std-42.TXT
Sample
Comments
Filename	C:\WINDMAX\DATA\USERS\GEO\GEO_ER~1\Pyrenees\BULKMA~1\2M1-std2.raw
Goniometer	Ultima IV In-plane
Attachment	Auto sample changer (10 samples)
ScanningMode	2Theta/Theta
ScanningType	Continuos Scanning
X-Ray	40kV/44mA
DivSlit	2/3deg.
DivH.L.Slit	10mm
SctSlit	2/3deg.
RecSlit	0.3mm
Start	16
Stop	44
Step	0.02
Speed	0.3
Offset	0
  16.000  789.745
  16.100  849.681
  16.200  762.998
  16.300  632.704
  16.400  542.347
  16.500  639.077
  16.600  630.605
  16.700  669.520
  16.800  783.152
  16.900  529.972
  17.000  758.637
  17.100  710.154
  17.200  721.699
  17.300  624.879
  17.400  686.565
  17.500  820.171
  17.600  836.833
  17.700  834.566
  17.800 1152.437
  17.900 1248.969
  18.000 1267.792
  18.100 1109.916
  18.200  836.895
  18.300  727.443
  18.400  876.137
  18.500  818.854
  18.600  665.519
  18.700  813.878
  18.800  840.025
  18.900  648.829
  19.000  621.358
  19.100  719.011
  19.200  754.094
  19.300  792.578
  19.400  708.254
  19.500  696.133
  19.600  912.933
  19.700 1137.639
  19.800 1619.359
  19.900 2145.174
  20.000 2685.474
  20.100 2374.798
  20.200 1625.316
  20.300 1268.743
  20.400 1170.231
  20.500 1042.222
  20.600  914.453
  20.700 1237.353
  20.800 1236.223
  20.900 1019.253
  21.000  868.799
  21.100  896.598
  21.200  857.009
  21.300  730.184
  21.400  871.872
  21.500  842.675
  21.600  952.098
  21.700 1170.261
  21.800 1128.980
  21.900  878.976
  22.000  809.595
  22.100  921.861
  22.200  752.195
  22.300  757.790
  22.400  921.585
  22.500  866.250
  22.600  821.363
  22.700  846.366
  22.800  998.600
  22.900 1286.583
  23.000 1592.086
  23.100 1679.434
  23.200 1399.622
  23.300 1096.845
  23.400  776.299
  23.500  872.374
  23.600  905.129
  23.700  948.601
  23.800 1128.176
  23.900 1478.453
  24.000 1465.406
  24.100 1569.593
  24.200 1205.839
  24.300 1162.239
  24.400  938.156
  24.500  824.132
  24.600  711.877
  24.700  864.104
  24.800  928.520
  24.900  850.037
  25.000  933.546
  25.100 1115.155
  25.200 1183.481
  25.300 1045.695
  25.400 1113.662
  25.500 1326.277
  25.600 1597.100
  25.700 1559.943
  25.800 1325.186
  25.900  939.697
  26.000 1008.878
  26.100  898.108
  26.200  739.765
  26.300  841.410
  26.400 1030.948
  26.500 1125.297
  26.600 1377.362
  26.700 1888.091
  26.800 2254.255
  26.900 2362.180
  27.000 1908.873
  27.100 1463.801
  27.200 1175.250
  27.300  986.996
  27.400  866.268
  27.500  937.057
  27.600  935.700
  27.700 1034.288
  27.800 1046.003
  27.900 1393.560
  28.000 1689.399
  28.100 1508.496
  28.200 1307.747
  28.300  947.063
  28.400 1004.226
  28.500  971.288
  28.600  900.329
  28.700  873.736
  28.800  953.178
  28.900  838.325
  29.000  739.384
  29.100  966.219
  29.200  664.000
  29.300  737.606
  29.400  827.838
  29.500  860.010
  29.600  835.601
  29.700  863.198
  29.800 1028.228
  29.900 1387.566
  30.000 1512.820
  30.100 1437.750
  30.200 1162.990
  30.300  973.950
  30.400  837.327
  30.500  817.421
  30.600  628.710
  30.700  729.670
  30.800  844.615
  30.900  649.865
  31.000  951.407
  31.100  958.588
  31.200 1048.784
  31.300 1326.360
  31.400 1464.845
  31.500 1378.752
  31.600 1493.046
  31.700 1436.375
  31.800 1347.070
  31.900 1279.253
  32.000  940.991
  32.100 1221.383
  32.200 1179.371
  32.300 1057.624
  32.400  873.439
  32.500  841.622
  32.600  639.630
  32.700  592.773
  32.800  784.349
  32.900  605.278
  33.000  704.511
  33.100  685.303
  33.200  633.542
  33.300  690.457
  33.400  522.977
  33.500  607.773
  33.600  613.377
  33.700  662.989
  33.800  800.246
  33.900  744.745
  34.000  636.046
  34.100  665.118
  34.200  717.355
  34.300  715.090
  34.400  860.028
  34.500  798.475
  34.600 1236.519
  34.700 1414.295
  34.800 1706.057
  34.900 1861.655
  35.000 2150.178
  35.100 2781.365
  35.200 2879.185
  35.300 2029.653
  35.400 1504.734
  35.500  942.504
  35.600  978.597
  35.700  714.152
  35.800  717.271
  35.900  768.027
  36.000  906.473
  36.100  787.805
  36.200  982.491
  36.300  930.770
  36.400  813.672
  36.500 1068.886
  36.600 1057.546
  36.700  992.964
  36.800 1092.363
  36.900 1031.632
  37.000  926.882
  37.100  826.262
  37.200  865.094
  37.300  715.422
  37.400  838.190
  37.500  863.186
  37.600  987.281
  37.700 1056.553
  37.800 1111.938
  37.900 1302.524
  38.000 1174.876
  38.100  959.400
  38.200  764.315
  38.300  903.086
  38.400  822.152
  38.500  636.637
  38.600  542.043
  38.700  543.533
  38.800  511.163
  38.900  639.906
  39.000  701.383
  39.100  481.934
  39.200  524.788
  39.300  531.548
  39.400  519.702
  39.500  614.008
  39.600  666.787
  39.700  752.332
  39.800  522.388
  39.900  547.179
  40.000  792.777
  40.100  684.390
  40.200  804.407
  40.300  765.768
  40.400  851.301
  40.500  917.358
  40.600  891.275
  40.700  784.149
  40.800  838.430
  40.900  832.678
  41.000  950.130
  41.100  731.448
  41.200  678.593
  41.300  894.790
  41.400  674.200
  41.500  687.267
  41.600  765.489
  41.700  634.958
  41.800  548.741
  41.900  678.502
  42.000  704.769
  42.100  923.099
  42.200  813.525
  42.300  917.639
  42.400 1035.981
  42.500  922.290
  42.600  932.471
  42.700  937.977
  42.800  813.349
  42.900  765.323
  43.000  675.458
  43.100  590.691
  43.200  634.109
  43.300  533.726
  43.400  609.498
  43.500  552.559
  43.600  563.423
  43.700  456.046
  43.800  514.097
  43.900  701.330
  44.000  562.674