File: xrd_output/random_files/2M1-std-18.TXT
Sample
Comments
Filename	C:\WINDMAX\DATA\USERS\GEO\GEO_ER~1\Pyrenees\BULKMA~1\2M1-std2.raw
Goniometer	Ultima IV In-plane
Attachment	Auto sample changer (10 samples)
ScanningMode	2Theta/Theta
ScanningType	Continuos Scanning
X-Ray	40kV/44mA
DivSlit	2/3deg.
DivH.L.Slit	10mm
SctSlit	2/3deg.
RecSlit	0.3mm
Start	16
Stop	44
Step	0.02
Speed	0.3
Offset	0
  16.000  614.226
  16.100  712.803
  16.200  716.558
  16.300  539.020
  16.400  526.958
  16.500  681.134
  16.600  701.053
  16.700  545.377
  16.800  743.378
  16.900  675.252
  17.000  570.021
  17.100  581.108
  17.200  603.797
  17.300  600.715
  17.400  685.414
  17.500  795.730
  17.600  862.881
  17.700  830.777
  17.800 1067.070
  17.900 1427.375
  18.000 1369.636
  18.100 1148.631
  18.200  889.680
  18.300  650.568
  18.400  673.499
  18.500  636.932
  18.600  866.365
  18.700  778.788
  18.800  772.065
  18.900  597.988
  19.000  649.199
  19.100  694.965
  19.200  773.061
  19.300  701.245
  19.400  712.588
  19.500  895.673
  19.600  835.813
  19.700 1207.912
  19.800 1536.507
  19.900 2276.140
  20.000 2610.488
  20.100 2360.695
  20.200 1372.014
  20.300 1281.362
  20.400 1189.497
  20.500 1043.180
  20.600  903.175
  20.700 1050.572
  20.800 1101.322
  20.900 1072.803
  21.000  800.883
  21.100  914.212
  21.200  742.163
  21.300  762.916
  21.400  761.595
  21.500 1035.039
  21.600 1158.079
  21.700 1182.290
  21.800 1150.877
  21.900  855.999
  22.000  751.059
  22.100  704.560
  22.200  770.081
  22.300  707.749
  22.400  915.691
  22.500  922.398
  22.600  954.251
  22.700 1022.722
  22.800 1126.270
  22.900 1305.978
  23.000 1568.586
  23.100 1687.088
  23.200 1213.275
  23.300 1144.180
  23.400  848.154
  23.500  770.034
  23.600  835.633
  23.700  882.938
  23.800 1235.501
  23.900 1441.631
  24.000 1663.373
  24.100 1581.759
  24.200 1285.926
  24.300 1176.224
  24.400  927.349
  24.500  802.190
  24.600  885.363
  24.700  870.334
  24.800  736.846
  24.900  761.373
  25.000  989.568
  25.100 1073.974
  25.200 1046.641
  25.300 1043.162
  25.400 1184.034
  25.500 1317.193
  25.600 1700.890
  25.700 1523.989
  25.800 1352.055
  25.900 1137.939
  26.000  836.543
  26.100  942.802
  26.200  893.783
  26.300  959.605
  26.400 1068.300
  26.500 1018.590
  26.600 1502.912
  26.700 1903.413
  26.800 2303.531
  26.900 2412.842
  27.000 1796.766
  27.100 1442.259
  27.200 1111.531
  27.300  873.629
  27.400  877.697
  27.500  823.855
  27.600  889.466
  27.700 1075.497
  27.800 1129.320
  27.900 1499.282
  28.000 1588.345
  28.100 1404.592
  28.200 1305.162
  28.300  943.959
  28.400  935.171
  28.500  824.737
  28.600  817.547
  28.700  944.610
  28.800  800.900
  28.900  938.778
  29.000  737.755
  29.100  811.604
  29.200  814.183
  29.300  648.019
  29.400  636.621
  29.500  752.104
  29.600  810.362
  29.700  867.026
  29.800 1102.697
  29.900 1332.734
  30.000 1470.376
  30.100 1390.105
  30.200 1030.339
  30.300  848.878
  30.400  901.586
  30.500  731.907
  30.600  678.898
  30.700  570.505
  30.800  701.178
  30.900  674.570
  31.000  753.319
  31.100 1079.306
  31.200 1026.790
  31.300 1515.659
  31.400 1496.809
  31.500 1486.042
  31.600 1460.073
  31.700 1369.069
  31.800 1474.098
  31.900 1300.986
  32.000  926.717
  32.100 1043.115
  32.200 1152.545
  32.300 1134.317
  32.400  829.127
  32.500  861.484
  32.600  730.376
  32.700  744.830
  32.800  645.202
  32.900  723.681
  33.000  718.703
  33.100  671.099
  33.200  754.770
  33.300  782.817
  33.400  713.192
  33.500  677.863
  33.600  731.518
  33.700  743.531
  33.800  568.925
  33.900  626.746
  34.000  791.429
  34.100  638.695
  34.200  803.891
  34.300  617.341
  34.400  733.694
  34.500  830.020
  34.600 1087.078
  34.700 1642.853
  34.800 1579.094
  34.900 1808.291
  35.000 2004.189
  35.100 2683.336
  35.200 2796.189
  35.300 2093.332
  35.400 1294.449
  35.500  887.089
  35.600  921.642
  35.700  768.548
  35.800  827.575
  35.900  753.994
  36.000  819.960
  36.100  763.323
  36.200  916.921
  36.300  922.713
  36.400  874.472
  36.500 1029.499
  36.600 1147.779
  36.700 1154.172
  36.800 1118.092
  36.900  896.821
  37.000  854.502
  37.100  701.015
  37.200  781.959
  37.300  709.097
  37.400  883.076
  37.500  938.851
  37.600  810.113
  37.700 1104.718
  37.800 1141.102
  37.900 1168.235
  38.000 1243.092
  38.100 1043.558
  38.200  824.071
  38.300  857.333
  38.400  866.710
  38.500  588.815
  38.600  671.617
  38.700  605.104
  38.800  510.751
  38.900  586.607
  39.000  480.177
  39.100  515.420
  39.200  616.508
  39.300  684.115
  39.400  644.010
  39.500  570.305
  39.600  726.013
  39.700  611.999
  39.800  759.508
  39.900  670.517
  40.000  641.521
  40.100  868.038
  40.200  717.883
  40.300  995.714
  40.400  840.138
  40.500  807.832
  40.600  687.074
  40.700  796.938
  40.800  835.448
  40.900  755.615
  41.000  915.504
  41.100  966.898
  41.200  809.226
  41.300  711.307
  41.400  803.857
  41.500  734.852
  41.600  661.455
  41.700  684.423
  41.800  601.475
  41.900  770.699
  42.000  831.515
  42.100  816.803
  42.200  832.371
  42.300  932.336
  42.400 1003.714
  42.500  960.755
  42.600 1004.139
  42.700  939.763
  42.800  721.781
  42.900  714.226
  43.000  595.210
  43.100  695.954
  43.200  471.155
  43.300  649.048
  43.400  569.797
  43.500  574.872
  43.600  649.285
  43.700  627.111
  43.800  515.046
  43.900  500.784
  44.000  544.260