File: xrd_output/random_files/2M1-std-10.TXT
Sample
Comments
Filename	C:\WINDMAX\DATA\USERS\GEO\GEO_ER~1\Pyrenees\BULKMA~1\2M1-std2.raw
Goniometer	Ultima IV In-plane
Attachment	Auto sample changer (10 samples)
ScanningMode	2Theta/Theta
ScanningType	Continuos Scanning
X-Ray	40kV/44mA
DivSlit	2/3deg.
DivH.L.Slit	10mm
SctSlit	2/3deg.
RecSlit	0.3mm
Start	16
Stop	44
Step	0.02
Speed	0.3
Offset	0
  16.000  604.256
  16.100  749.004
  16.200  751.372
  16.300  560.745
  16.400  724.040
  16.500  726.605
  16.600  718.824
  16.700  590.442
  16.800  733.577
  16.900  598.246
  17.000  599.625
  17.100  533.390
  17.200  525.240
  17.300  574.587
  17.400  781.330
  17.500  632.743
  17.600  739.796
  17.700  903.438
  17.800 1137.252
  17.900 1398.716
  18.000 1416.554
  18.100 1160.919
  18.200  991.716
  18.300  694.580
  18.400  876.597
  18.500  650.001
  18.600  814.709
  18.700  774.359
  18.800  778.476
  18.900  736.575
  19.000  554.610
  19.100  758.616
  19.200  642.894
  19.300  722.164
  19.400  713.384
  19.500  688.537
  19.600  945.551
  19.700 1232.003
  19.800 1617.510
  19.900 2198.514
  20.000 2780.617
  20.100 2237.506
  20.200 1427.844
  20.300 1076.678
  20.400 1021.647
  20.500 1071.639
  20.600 1064.204
  20.700 1022.419
  20.800 1308.761
  20.900 1049.087
  21.000  949.238
  21.100  766.763
  21.200  673.457
  21.300  737.770
  21.400  940.052
  21.500  929.925
  21.600  945.227
  21.700 1169.422
  21.800 1067.663
  21.900 1025.626
  22.000  896.657
  22.100  840.734
  22.200  916.361
  22.300  735.529
  22.400  832.327
  22.500  852.681
  22.600  890.586
  22.700 1035.175
  22.800 1086.360
  22.900 1270.977
  23.000 1507.101
  23.100 1622.159
  23.200 1380.942
  23.300  987.276
  23.400  993.849
  23.500  771.249
  23.600  803.320
  23.700  918.777
  23.800 1117.057
  23.900 1449.236
  24.000 1570.119
  24.100 1355.202
  24.200 1312.791
  24.300 1026.396
  24.400  965.520
  24.500  855.319
  24.600  833.004
  24.700  870.212
  24.800  764.607
  24.900  991.387
  25.000  869.446
  25.100 1085.427
  25.200 1109.781
  25.300 1038.449
  25.400 1095.701
  25.500 1541.019
  25.600 1565.519
  25.700 1690.747
  25.800 1221.728
  25.900 1084.125
  26.000 1006.351
  26.100  960.331
  26.200  981.800
  26.300  825.237
  26.400  979.051
  26.500 1103.609
  26.600 1417.729
  26.700 1912.341
  26.800 2236.229
  26.900 2393.993
  27.000 1970.401
  27.100 1479.156
  27.200 1148.721
  27.300 1034.447
  27.400  871.090
  27.500  900.366
  27.600  856.369
  27.700 1022.874
  27.800 1229.195
  27.900 1552.207
  28.000 1648.615
  28.100 1528.416
  28.200 1237.973
  28.300 1181.602
  28.400 1038.431
  28.500  795.763
  28.600  749.607
  28.700  813.056
  28.800  813.175
  28.900  770.921
  29.000  739.989
  29.100  810.607
  29.200  818.107
  29.300  824.682
  29.400  809.530
  29.500  870.748
  29.600  914.331
  29.700  895.705
  29.800 1133.660
  29.900 1412.295
  30.000 1425.878
  30.100 1465.919
  30.200 1014.409
  30.300  979.871
  30.400  845.263
  30.500  622.604
  30.600  808.810
  30.700  574.559
  30.800  712.451
  30.900  808.117
  31.000  915.384
  31.100 1060.503
  31.200 1190.424
  31.300 1334.757
  31.400 1441.944
  31.500 1422.281
  31.600 1477.442
  31.700 1329.344
  31.800 1442.317
  31.900 1072.389
  32.000 1000.814
  32.100 1105.257
  32.200 1283.714
  32.300 1080.188
  32.400  950.579
  32.500  650.647
  32.600  647.797
  32.700  658.406
  32.800  809.059
  32.900  629.651
  33.000  654.266
  33.100  804.392
  33.200  735.157
  33.300  666.575
  33.400  690.931
  33.500  544.159
  33.600  659.625
  33.700  783.397
  33.800  794.519
  33.900  748.647
  34.000  694.688
  34.100  712.673
  34.200  845.636
  34.300  860.461
  34.400  810.279
  34.500  966.939
  34.600 1183.797
  34.700 1433.636
  34.800 1706.396
  34.900 1899.974
  35.000 2057.035
  35.100 2770.635
  35.200 2723.617
  35.300 2020.588
  35.400 1492.340
  35.500 1054.988
  35.600  795.246
  35.700  737.404
  35.800  742.938
  35.900  797.930
  36.000  829.688
  36.100  976.511
  36.200  919.807
  36.300  810.760
  36.400  875.047
  36.500 1012.698
  36.600  983.554
  36.700 1172.126
  36.800 1016.267
  36.900 1075.020
  37.000  995.182
  37.100  889.141
  37.200  780.479
  37.300  846.195
  37.400  925.439
  37.500  897.137
  37.600  922.165
  37.700  930.799
  37.800 1136.084
  37.900 1107.287
  38.000 1274.945
  38.100  887.333
  38.200  794.108
  38.300  906.804
  38.400  752.923
  38.500  572.590
  38.600  669.083
  38.700  497.298
  38.800  652.970
  38.900  619.288
  39.000  591.107
  39.100  562.090
  39.200  513.433
  39.300  700.304
  39.400  695.088
  39.500  712.013
  39.600  649.092
  39.700  597.600
  39.800  758.798
  39.900  561.302
  40.000  542.521
  40.100  775.765
  40.200  887.932
  40.300  959.629
  40.400  793.397
  40.500  771.216
  40.600  922.192
  40.700  659.026
  40.800  764.438
  40.900  825.403
  41.000  731.387
  41.100  841.982
  41.200  864.964
  41.300  795.525
  41.400  697.337
  41.500  836.015
  41.600  795.330
  41.700  590.582
  41.800  570.403
  41.900  705.638
  42.000  690.192
  42.100  908.788
  42.200  941.764
  42.300  906.798
  42.400  954.975
  42.500 1010.887
  42.600 1015.597
  42.700  950.210
  42.800  794.531
  42.900  597.036
  43.000  600.868
  43.100  655.299
  43.200  555.974
  43.300  589.586
  43.400  576.577
  43.500  438.352
  43.600  463.242
  43.700  553.080
  43.800  479.910
  43.900  659.222
  44.000  574.503