File: xrd_output/random_files/2M1-std-40.TXT
Sample
Comments
Filename	C:\WINDMAX\DATA\USERS\GEO\GEO_ER~1\Pyrenees\BULKMA~1\2M1-std2.raw
Goniometer	Ultima IV In-plane
Attachment	Auto sample changer (10 samples)
ScanningMode	2Theta/Theta
ScanningType	Continuos Scanning
X-Ray	40kV/44mA
DivSlit	2/3deg.
DivH.L.Slit	10mm
SctSlit	2/3deg.
RecSlit	0.3mm
Start	16
Stop	44
Step	0.02
Speed	0.3
Offset	0
  16.000  610.931
  16.100  746.494
  16.200  713.993
  16.300  581.057
  16.400  742.213
  16.500  568.067
  16.600  556.053
  16.700  556.925
  16.800  536.058
  16.900  600.397
  17.000  757.618
  17.100  556.748
  17.200  736.872
  17.300  635.215
  17.400  631.925
  17.500  649.820
  17.600  736.464
  17.700  860.395
  17.800 1198.549
  17.900 1241.103
  18.000 1253.780
  18.100 1241.600
  18.200  940.103
  18.300  826.134
  18.400  801.184
  18.500  693.771
  18.600  829.114
  18.700  657.127
  18.800  735.581
  18.900  818.023
  19.000  737.804
  19.100  705.887
  19.200  838.206
  19.300  769.933
  19.400  891.048
  19.500  811.252
  19.600  928.553
  19.700 1189.705
  19.800 1599.972
  19.900 2243.648
  20.000 2667.936
  20.100 2276.798
  20.200 1601.678
  20.300 1227.249
  20.400 1099.535
  20.500  998.241
  20.600 1093.665
  20.700 1230.357
  20.800 1151.087
  20.900 1222.444
  21.000  920.482
  21.100  668.748
  21.200  712.480
  21.300  774.256
  21.400  816.504
  21.500  919.841
  21.600 1019.713
  21.700 1075.979
  21.800  960.879
  21.900  937.887
  22.000  892.706
  22.100  772.034
  22.200  820.954
  22.300  779.873
  22.400  920.526
  22.500  925.525
  22.600  888.998
  22.700  930.905
  22.800 1091.024
  22.900 1137.032
  23.000 1643.673
  23.100 1526.866
  23.200 1295.904
  23.300  912.911
  23.400  851.252
  23.500  815.889
  23.600  998.498
  23.700  986.557
  23.800 1223.239
  23.900 1409.145
  24.000 1703.261
  24.100 1529.078
  24.200 1399.612
  24.300 1094.119
  24.400  975.219
  24.500  724.936
  24.600  919.660
  24.700  914.541
  24.800  891.747
  24.900  829.198
  25.000  986.598
  25.100  995.357
  25.200 1123.519
  25.300 1093.046
  25.400 1069.681
  25.500 1467.375
  25.600 1688.164
  25.700 1616.646
  25.800 1277.473
  25.900  935.163
  26.000  789.569
  26.100  901.271
  26.200  932.402
  26.300  823.361
  26.400  956.815
  26.500 1097.542
  26.600 1462.524
  26.700 1908.446
  26.800 2160.845
  26.900 2370.186
  27.000 1774.510
  27.100 1463.195
  27.200 1078.151
  27.300  913.359
  27.400  926.360
  27.500  998.681
  27.600 1051.883
  27.700  959.871
  27.800 1174.708
  27.900 1417.059
  28.000 1614.577
  28.100 1419.617
  28.200 1204.684
  28.300 1082.424
  28.400  918.752
  28.500  851.386
  28.600  866.583
  28.700 1028.336
  28.800 1003.264
  28.900  941.858
  29.000  923.136
  29.100  767.618
  29.200  880.175
  29.300  643.701
  29.400  672.192
  29.500  856.854
  29.600  828.015
  29.700  888.803
  29.800  967.007
  29.900 1383.100
  30.000 1422.586
  30.100 1377.894
  30.200 1082.600
  30.300  923.714
  30.400  900.911
  30.500  691.955
  30.600  768.083
  30.700  703.903
  30.800  789.692
  30.900  692.854
  31.000  891.198
  31.100  893.327
  31.200 1109.786
  31.300 1337.766
  31.400 1656.212
  31.500 1426.105
  31.600 1373.450
  31.700 1518.984
  31.800 1314.031
  31.900 1111.841
  32.000 1068.356
  32.100 1065.848
  32.200 1126.550
  32.300 1088.439
  32.400  943.634
  32.500  867.269
  32.600  640.356
  32.700  642.510
  32.800  584.706
  32.900  817.560
  33.000  745.632
  33.100  648.447
  33.200  685.960
  33.300  550.978
  33.400  562.396
  33.500  716.522
  33.600  703.413
  33.700  576.841
  33.800  727.423
  33.900  560.918
  34.000  715.564
  34.100  816.669
  34.200  856.541
  34.300  687.768
  34.400  811.346
  34.500  883.026
  34.600 1056.836
  34.700 1598.449
  34.800 1778.405
  34.900 1728.012
  35.000 2051.622
  35.100 2545.283
  35.200 2865.394
  35.300 2214.749
  35.400 1491.555
  35.500  925.050
  35.600  850.439
  35.700  713.003
  35.800  877.096
  35.900  947.099
  36.000  735.537
  36.100  885.530
  36.200  932.212
  36.300  843.876
  36.400  861.288
  36.500  977.533
  36.600 1100.988
  36.700  970.310
  36.800 1013.518
  36.900 1095.489
  37.000  843.061
  37.100  878.372
  37.200  899.477
  37.300  871.266
  37.400  859.607
  37.500  742.411
  37.600  868.649
  37.700 1123.066
  37.800 1241.344
  37.900 1077.643
  38.000 1242.261
  38.100  953.244
  38.200  919.672
  38.300  757.194
  38.400  741.166
  38.500  718.009
  38.600  646.531
  38.700  648.710
  38.800  704.872
  38.900  517.897
  39.000  673.558
  39.100  696.265
  39.200  688.271
  39.300  490.318
  39.400  676.912
  39.500  640.208
  39.600  705.701
  39.700  539.983
  39.800  741.202
  39.900  565.338
  40.000  540.907
  40.100  763.205
  40.200  819.789
  40.300  908.141
  40.400  957.179
  40.500  882.710
  40.600  836.545
  40.700  862.481
  40.800  808.363
  40.900  953.353
  41.000  965.098
  41.100  712.179
  41.200  707.502
  41.300  716.656
  41.400  715.264
  41.500  902.077
  41.600  766.472
  41.700  669.183
  41.800  692.285
  41.900  765.043
  42.000  781.062
  42.100  863.952
  42.200  910.976
  42.300  897.889
  42.400 1041.247
  42.500 1174.899
  42.600 1112.026
  42.700  956.183
  42.800  738.553
  42.900  688.854
  43.000  737.140
  43.100  511.098
  43.200  687.390
  43.300  674.916
  43.400  670.005
  43.500  442.264
  43.600  517.462
  43.700  583.652
  43.800  573.290
  43.900  540.271
  44.000  588.982