File: xrd_output/random_files/2M1-std-34.TXT
Sample
Comments
Filename	C:\WINDMAX\DATA\USERS\GEO\GEO_ER~1\Pyrenees\BULKMA~1\2M1-std2.raw
Goniometer	Ultima IV In-plane
Attachment	Auto sample changer (10 samples)
ScanningMode	2Theta/Theta
ScanningType	Continuos Scanning
X-Ray	40kV/44mA
DivSlit	2/3deg.
DivH.L.Slit	10mm
SctSlit	2/3deg.
RecSlit	0.3mm
Start	16
Stop	44
Step	0.02
Speed	0.3
Offset	0
  16.000  645.047
  16.100  857.889
  16.200  570.967
  16.300  712.733
  16.400  680.684
  16.500  515.437
  16.600  664.860
  16.700  597.799
  16.800  749.778
  16.900  623.682
  17.000  699.548
  17.100  687.992
  17.200  657.671
  17.300  770.979
  17.400  630.292
  17.500  743.874
  17.600  774.804
  17.700  814.555
  17.800 1174.288
  17.900 1437.391
  18.000 1302.276
  18.100 1258.904
  18.200 1051.605
  18.300  754.311
  18.400  851.794
  18.500  653.654
  18.600  865.015
  18.700  785.419
  18.800  724.585
  18.900  748.164
  19.000  592.495
  19.100  668.173
  19.200  848.409
  19.300  680.386
  19.400  744.968
  19.500  875.392
  19.600  831.961
  19.700 1050.524
  19.800 1638.377
  19.900 2277.347
  20.000 2802.872
  20.100 2336.049
  20.200 1545.291
  20.300 1089.184
  20.400 1030.635
  20.500  998.179
  20.600  997.368
  20.700 1065.304
  20.800 1316.927
  20.900  966.929
  21.000  925.645
  21.100  739.410
  21.200  710.458
  21.300  816.396
  21.400  947.304
  21.500 1051.294
  21.600 1059.943
  21.700 1121.909
  21.800  968.177
  21.900  958.618
  22.000  865.610
  22.100  861.864
  22.200  733.747
  22.300  824.817
  22.400  846.827
  22.500  886.692
  22.600  802.095
  22.700  888.660
  22.800 1136.422
  22.900 1306.976
  23.000 1457.373
  23.100 1513.222
  23.200 1261.067
  23.300  947.603
  23.400  961.762
  23.500  955.936
  23.600  816.322
  23.700 1048.168
  23.800 1120.481
  23.900 1380.669
  24.000 1558.330
  24.100 1363.062
  24.200 1292.803
  24.300 1182.068
  24.400  864.666
  24.500  838.343
  24.600  771.635
  24.700  765.657
  24.800  728.105
  24.900  991.622
  25.000  955.504
  25.100 1118.916
  25.200  969.640
  25.300 1073.027
  25.400 1223.659
  25.500 1532.140
  25.600 1561.996
  25.700 1626.206
  25.800 1264.983
  25.900 1046.913
  26.000  973.123
  26.100  878.379
  26.200  906.532
  26.300 1004.166
  26.400 1098.182
  26.500 1217.663
  26.600 1284.376
  26.700 1946.319
  26.800 2144.052
  26.900 2408.663
  27.000 1824.190
  27.100 1434.760
  27.200 1110.684
  27.300  953.736
  27.400 1004.881
  27.500  912.782
  27.600 1010.472
  27.700  997.219
  27.800 1268.208
  27.900 1369.896
  28.000 1665.769
  28.100 1600.522
  28.200 1300.282
  28.300 1191.577
  28.400  802.661
  28.500  884.814
  28.600  953.863
  28.700  960.281
  28.800 1019.473
  28.900  841.233
  29.000  896.375
  29.100  910.697
  29.200  751.138
  29.300  664.571
  29.400  720.022
  29.500  841.456
  29.600  894.107
  29.700  798.769
  29.800 1120.079
  29.900 1278.621
  30.000 1538.813
  30.100 1366.384
  30.200 1071.638
  30.300  902.259
  30.400  842.772
  30.500  621.773
  30.600  689.085
  30.700  584.484
  30.800  605.727
  30.900  861.380
  31.000  783.713
  31.100  860.769
  31.200 1153.233
  31.300 1504.608
  31.400 1692.182
  31.500 1513.153
  31.600 1398.598
  31.700 1334.440
  31.800 1240.144
  31.900 1227.319
  32.000 1148.228
  32.100 1095.095
  32.200 1267.704
  32.300  986.773
  32.400  749.373
  32.500  736.056
  32.600  794.931
  32.700  711.572
  32.800  696.159
  32.900  690.024
  33.000  641.383
  33.100  724.652
  33.200  767.009
  33.300  723.281
  33.400  774.551
  33.500  510.729
  33.600  679.970
  33.700  590.454
  33.800  786.784
  33.900  646.060
  34.000  653.446
  34.100  722.168
  34.200  821.279
  34.300  630.078
  34.400  882.860
  34.500  793.763
  34.600 1096.493
  34.700 1449.261
  34.800 1742.510
  34.900 1790.432
  35.000 1959.783
  35.100 2616.323
  35.200 2923.674
  35.300 2206.211
  35.400 1443.305
  35.500  955.213
  35.600  957.002
  35.700  828.455
  35.800  820.666
  35.900  820.357
  36.000  903.294
  36.100  889.193
  36.200  863.728
  36.300  878.514
  36.400  757.811
  36.500 1027.716
  36.600 1091.481
  36.700 1094.952
  36.800 1075.716
  36.900  973.186
  37.000  973.346
  37.100  804.512
  37.200  757.900
  37.300  800.019
  37.400  908.194
  37.500  745.687
  37.600  924.887
  37.700  993.771
  37.800 1236.436
  37.900 1157.337
  38.000 1211.040
  38.100 1019.535
  38.200  891.662
  38.300  829.312
  38.400  651.092
  38.500  705.252
  38.600  549.004
  38.700  606.814
  38.800  514.600
  38.900  488.560
  39.000  710.240
  39.100  680.073
  39.200  496.544
  39.300  630.897
  39.400  737.313
  39.500  688.212
  39.600  639.178
  39.700  737.160
  39.800  612.309
  39.900  705.807
  40.000  571.298
  40.100  807.422
  40.200  942.755
  40.300  935.459
  40.400  729.141
  40.500  718.369
  40.600  799.785
  40.700  699.873
  40.800  830.292
  40.900 1002.285
  41.000  811.658
  41.100  911.730
  41.200  772.127
  41.300  886.295
  41.400  760.226
  41.500  660.889
  41.600  653.589
  41.700  785.402
  41.800  683.486
  41.900  620.980
  42.000  698.120
  42.100  727.782
  42.200 1027.395
  42.300 1022.343
  42.400  868.234
  42.500 1091.099
  42.600  974.684
  42.700  966.063
  42.800  663.387
  42.900  770.549
  43.000  517.228
  43.100  631.019
  43.200  491.272
  43.300  625.848
  43.400  552.184
  43.500  440.513
  43.600  539.512
  43.700  619.823
  43.800  556.817
  43.900  584.941
  44.000  716.735