File: xrd_output/random_files/2M1-std-16.TXT
Sample
Comments
Filename	C:\WINDMAX\DATA\USERS\GEO\GEO_ER~1\Pyrenees\BULKMA~1\2M1-std2.raw
Goniometer	Ultima IV In-plane
Attachment	Auto sample changer (10 samples)
ScanningMode	2Theta/Theta
ScanningType	Continuos Scanning
X-Ray	40kV/44mA
DivSlit	2/3deg.
DivH.L.Slit	10mm
SctSlit	2/3deg.
RecSlit	0.3mm
Start	16
Stop	44
Step	0.02
Speed	0.3
Offset	0
  16.000  563.884
  16.100  800.112
  16.200  705.511
  16.300  669.666
  16.400  729.808
  16.500  694.581
  16.600  613.851
  16.700  678.657
  16.800  742.236
  16.900  524.045
  17.000  575.085
  17.100  584.537
  17.200  707.178
  17.300  724.197
  17.400  775.901
  17.500  748.046
  17.600  673.066
  17.700 1015.028
  17.800 1103.297
  17.900 1370.827
  18.000 1314.968
  18.100 1054.707
  18.200 1026.222
  18.300  816.603
  18.400  818.036
  18.500  661.939
  18.600  769.869
  18.700  873.755
  18.800  833.257
  18.900  702.883
  19.000  649.314
  19.100  584.834
  19.200  741.429
  19.300  746.364
  19.400  692.201
  19.500  807.174
  19.600  943.928
  19.700 1036.089
  19.800 1509.141
  19.900 2218.632
  20.000 2780.344
  20.100 2326.379
  20.200 1624.084
  20.300 1129.031
  20.400 1020.432
  20.500 1083.564
  20.600 1001.180
  20.700 1047.908
  20.800 1128.204
  20.900 1082.113
  21.000  864.800
  21.100  715.776
  21.200  889.769
  21.300  867.211
  21.400  811.750
  21.500  797.892
  21.600 1038.152
  21.700 1102.820
  21.800 1169.269
  21.900  878.895
  22.000  887.140
  22.100  776.278
  22.200  914.925
  22.300  856.890
  22.400  969.931
  22.500  906.118
  22.600 1044.377
  22.700  906.642
  22.800  940.798
  22.900 1239.306
  23.000 1543.033
  23.100 1714.346
  23.200 1278.289
  23.300 1090.723
  23.400  857.820
  23.500  842.127
  23.600  996.746
  23.700 1057.056
  23.800 1057.893
  23.900 1496.318
  24.000 1695.976
  24.100 1326.870
  24.200 1188.813
  24.300 1015.971
  24.400  920.010
  24.500  890.393
  24.600  702.199
  24.700  929.472
  24.800  686.283
  24.900  805.131
  25.000  783.676
  25.100 1082.644
  25.200 1208.475
  25.300 1024.615
  25.400 1200.180
  25.500 1309.938
  25.600 1729.334
  25.700 1742.713
  25.800 1338.277
  25.900  977.435
  26.000  827.667
  26.100  984.983
  26.200  805.614
  26.300  983.033
  26.400  905.289
  26.500 1154.682
  26.600 1364.070
  26.700 1896.471
  26.800 2310.415
  26.900 2280.666
  27.000 1755.804
  27.100 1496.405
  27.200  978.575
  27.300 1004.195
  27.400  968.725
  27.500  872.232
  27.600  922.531
  27.700  950.578
  27.800 1144.339
  27.900 1452.697
  28.000 1628.487
  28.100 1452.148
  28.200 1299.914
  28.300 1066.644
  28.400  947.938
  28.500  849.843
  28.600  774.660
  28.700  956.223
  28.800 1016.234
  28.900 1010.098
  29.000  833.242
  29.100  907.818
  29.200  729.806
  29.300  793.593
  29.400  835.441
  29.500  653.753
  29.600  916.376
  29.700 1024.961
  29.800 1068.333
  29.900 1354.032
  30.000 1681.235
  30.100 1418.386
  30.200 1155.923
  30.300 1025.250
  30.400  672.517
  30.500  804.124
  30.600  669.563
  30.700  794.827
  30.800  810.996
  30.900  820.599
  31.000  815.307
  31.100  902.485
  31.200 1276.311
  31.300 1481.603
  31.400 1687.300
  31.500 1526.399
  31.600 1570.997
  31.700 1383.079
  31.800 1237.172
  31.900 1295.738
  32.000  964.405
  32.100  992.798
  32.200 1202.837
  32.300  994.836
  32.400  748.300
  32.500  719.819
  32.600  727.705
  32.700  706.120
  32.800  709.530
  32.900  605.917
  33.000  685.015
  33.100  698.827
  33.200  622.908
  33.300  629.158
  33.400  522.620
  33.500  641.567
  33.600  660.586
  33.700  673.583
  33.800  645.826
  33.900  671.286
  34.000  604.120
  34.100  605.991
  34.200  893.759
  34.300  621.003
  34.400  827.246
  34.500  788.953
  34.600 1160.300
  34.700 1637.920
  34.800 1554.819
  34.900 1825.457
  35.000 1951.055
  35.100 2759.463
  35.200 2881.721
  35.300 1984.391
  35.400 1443.028
  35.500 1037.287
  35.600  848.909
  35.700  868.671
  35.800  672.879
  35.900  784.692
  36.000  965.747
  36.100  871.682
  36.200  773.040
  36.300  845.960
  36.400  954.078
  36.500  921.996
  36.600 1118.411
  36.700 1183.161
  36.800  901.092
  36.900  879.793
  37.000 1049.775
  37.100  775.000
  37.200  655.585
  37.300  660.019
  37.400  846.363
  37.500  975.145
  37.600  827.298
  37.700 1107.401
  37.800 1055.148
  37.900 1167.265
  38.000 1211.274
  38.100 1097.443
  38.200  867.055
  38.300  774.050
  38.400  800.220
  38.500  598.931
  38.600  771.443
  38.700  743.756
  38.800  592.136
  38.900  719.581
  39.000  573.775
  39.100  602.003
  39.200  644.142
  39.300  527.641
  39.400  651.419
  39.500  655.837
  39.600  596.096
  39.700  643.770
  39.800  719.626
  39.900  770.652
  40.000  617.761
  40.100  726.185
  40.200  731.159
  40.300  951.756
  40.400  926.280
  40.500  880.620
  40.600  826.535
  40.700  619.339
  40.800  726.691
  40.900  952.132
  41.000  891.769
  41.100  916.308
  41.200  840.468
  41.300  745.855
  41.400  664.077
  41.500  729.728
  41.600  727.195
  41.700  628.518
  41.800  547.903
  41.900  645.626
  42.000  745.480
  42.100  748.607
  42.200  903.600
  42.300 1020.476
  42.400 1103.964
  42.500 1154.632
  42.600  996.614
  42.700  927.398
  42.800  880.700
  42.900  533.478
  43.000  592.256
  43.100  643.720
  43.200  429.874
  43.300  435.902
  43.400  478.254
  43.500  481.619
  43.600  505.854
  43.700  595.336
  43.800  533.610
  43.900  701.965
  44.000  505.999