File: xrd_output/random_files/2M1-std-14.TXT
Sample
Comments
Filename	C:\WINDMAX\DATA\USERS\GEO\GEO_ER~1\Pyrenees\BULKMA~1\2M1-std2.raw
Goniometer	Ultima IV In-plane
Attachment	Auto sample changer (10 samples)
ScanningMode	2Theta/Theta
ScanningType	Continuos Scanning
X-Ray	40kV/44mA
DivSlit	2/3deg.
DivH.L.Slit	10mm
SctSlit	2/3deg.
RecSlit	0.3mm
Start	16
Stop	44
Step	0.02
Speed	0.3
Offset	0
  16.000  758.504
  16.100  807.463
  16.200  783.325
  16.300  775.764
  16.400  691.967
  16.500  670.173
  16.600  731.753
  16.700  598.626
  16.800  676.378
  16.900  592.216
  17.000  540.521
  17.100  730.138
  17.200  693.495
  17.300  598.412
  17.400  598.173
  17.500  690.316
  17.600  882.409
  17.700  906.503
  17.800 1178.775
  17.900 1403.680
  18.000 1408.646
  18.100 1125.805
  18.200  900.270
  18.300  786.006
  18.400  816.524
  18.500  676.581
  18.600  831.602
  18.700  768.132
  18.800  639.863
  18.900  815.184
  19.000  686.391
  19.100  610.137
  19.200  843.488
  19.300  857.939
  19.400  679.905
  19.500  919.152
  19.600  806.821
  19.700 1070.986
  19.800 1498.930
  19.900 2091.554
  20.000 2692.715
  20.100 2295.152
  20.200 1572.360
  20.300 1089.843
  20.400 1187.133
  20.500 1048.524
  20.600  985.723
  20.700 1152.141
  20.800 1153.357
  20.900 1147.905
  21.000  844.762
  21.100  830.961
  21.200  912.672
  21.300  762.595
  21.400  888.615
  21.500  809.758
  21.600  998.744
  21.700 1131.277
  21.800 1109.850
  21.900 1047.445
  22.000  804.912
  22.100  902.561
  22.200  883.636
  22.300  856.543
  22.400  731.291
  22.500  816.907
  22.600  814.303
  22.700  819.772
  22.800 1125.056
  22.900 1124.817
  23.000 1621.290
  23.100 1709.294
  23.200 1230.143
  23.300 1037.491
  23.400  913.117
  23.500  927.546
  23.600 1020.219
  23.700 1041.297
  23.800 1077.945
  23.900 1537.018
  24.000 1557.120
  24.100 1444.645
  24.200 1428.000
  24.300 1020.067
  24.400  833.305
  24.500  742.285
  24.600  703.936
  24.700  903.431
  24.800  834.828
  24.900  771.538
  25.000 1000.139
  25.100 1027.903
  25.200  969.606
  25.300 1186.461
  25.400 1287.418
  25.500 1546.572
  25.600 1764.749
  25.700 1597.270
  25.800 1371.659
  25.900 1057.515
  26.000  943.077
  26.100  934.717
  26.200  796.436
  26.300  788.449
  26.400 1106.762
  26.500 1068.008
  26.600 1450.763
  26.700 1915.817
  26.800 2148.379
  26.900 2306.455
  27.000 1835.709
  27.100 1368.424
  27.200 1099.805
  27.300 1070.893
  27.400  994.022
  27.500  921.711
  27.600  977.699
  27.700  970.689
  27.800 1247.004
  27.900 1350.497
  28.000 1643.486
  28.100 1448.741
  28.200 1299.235
  28.300 1011.517
  28.400  962.054
  28.500  945.894
  28.600  784.779
  28.700 1059.350
  28.800  931.617
  28.900  788.906
  29.000  961.641
  29.100  806.849
  29.200  785.044
  29.300  666.469
  29.400  814.332
  29.500  758.229
  29.600  883.277
  29.700  791.519
  29.800 1010.134
  29.900 1279.711
  30.000 1541.446
  30.100 1398.601
  30.200 1250.149
  30.300  837.287
  30.400  867.016
  30.500  648.984
  30.600  656.227
  30.700  801.944
  30.800  681.432
  30.900  836.769
  31.000  802.017
  31.100  845.981
  31.200 1106.376
  31.300 1313.803
  31.400 1593.347
  31.500 1449.233
  31.600 1473.603
  31.700 1487.131
  31.800 1271.297
  31.900 1043.998
  32.000  988.787
  32.100 1208.777
  32.200 1089.820
  32.300 1124.972
  32.400  822.784
  32.500  859.735
  32.600  771.889
  32.700  790.108
  32.800  816.709
  32.900  779.537
  33.000  619.232
  33.100  756.860
  33.200  777.044
  33.300  523.497
  33.400  741.734
  33.500  722.684
  33.600  529.971
  33.700  688.314
  33.800  661.733
  33.900  698.039
  34.000  718.106
  34.100  801.839
  34.200  781.667
  34.300  807.814
  34.400  675.379
  34.500  875.950
  34.600 1227.280
  34.700 1466.648
  34.800 1606.543
  34.900 1896.976
  35.000 1944.887
  35.100 2679.962
  35.200 2924.977
  35.300 2000.205
  35.400 1523.154
  35.500 1022.267
  35.600  764.240
  35.700  741.120
  35.800  765.979
  35.900  859.998
  36.000  727.060
  36.100  880.567
  36.200  855.277
  36.300  794.358
  36.400  950.370
  36.500 1076.912
  36.600 1023.980
  36.700 1193.887
  36.800  916.020
  36.900 1005.585
  37.000  974.242
  37.100  683.676
  37.200  848.927
  37.300  775.951
  37.400  725.491
  37.500  842.579
  37.600  853.160
  37.700  993.408
  37.800 1238.404
  37.900 1087.581
  38.000 1258.032
  38.100 1005.097
  38.200  922.052
  38.300  805.990
  38.400  828.359
  38.500  801.685
  38.600  631.402
  38.700  485.623
  38.800  617.294
  38.900  669.721
  39.000  489.514
  39.100  679.163
  39.200  521.916
  39.300  594.262
  39.400  498.199
  39.500  573.002
  39.600  554.055
  39.700  707.314
  39.800  662.231
  39.900  563.869
  40.000  721.503
  40.100  811.624
  40.200  780.078
  40.300  913.022
  40.400  832.633
  40.500  708.574
  40.600  854.072
  40.700  639.568
  40.800  929.309
  40.900  954.721
  41.000  807.376
  41.100  897.723
  41.200  717.984
  41.300  883.315
  41.400  741.714
  41.500  658.755
  41.600  692.675
  41.700  792.402
  41.800  752.363
  41.900  661.545
  42.000  856.006
  42.100  921.162
  42.200 1009.163
  42.300  909.052
  42.400  901.981
  42.500 1167.737
  42.600  988.407
  42.700  897.467
  42.800  754.152
  42.900  647.964
  43.000  538.457
  43.100  547.516
  43.200  529.702
  43.300  584.226
  43.400  426.983
  43.500  439.891
  43.600  663.686
  43.700  548.972
  43.800  539.105
  43.900  709.677
  44.000  554.904