File: xrd_output/random_files/2M1-std-30.TXT
Sample
Comments
Filename	C:\WINDMAX\DATA\USERS\GEO\GEO_ER~1\Pyrenees\BULKMA~1\2M1-std2.raw
Goniometer	Ultima IV In-plane
Attachment	Auto sample changer (10 samples)
ScanningMode	2Theta/Theta
ScanningType	Continuos Scanning
X-Ray	40kV/44mA
DivSlit	2/3deg.
DivH.L.Slit	10mm
SctSlit	2/3deg.
RecSlit	0.3mm
Start	16
Stop	44
Step	0.02
Speed	0.3
Offset	0
  16.000  693.259
  16.100  762.677
  16.200  569.534
  16.300  636.202
  16.400  526.597
  16.500  609.112
  16.600  533.079
  16.700  645.985
  16.800  550.174
  16.900  708.899
  17.000  541.642
  17.100  693.059
  17.200  728.699
  17.300  555.664
  17.400  776.916
  17.500  781.783
  17.600  769.314
  17.700  950.401
  17.800 1130.436
  17.900 1330.527
  18.000 1245.754
  18.100 1102.742
  18.200  962.255
  18.300  888.797
  18.400  630.949
  18.500  832.596
  18.600  770.778
  18.700  634.060
  18.800  846.566
  18.900  828.658
  19.000  697.112
  19.100  580.705
  19.200  651.085
  19.300  814.685
  19.400  844.294
  19.500  852.240
  19.600  910.906
  19.700 1125.668
  19.800 1481.152
  19.900 2241.097
  20.000 2561.223
  20.100 2448.990
  20.200 1462.137
  20.300 1124.774
  20.400 1159.198
  20.500 1076.033
  20.600  929.544
  20.700 1033.745
  20.800 1173.245
  20.900 1043.355
  21.000  871.592
  21.100  898.492
  21.200  683.740
  21.300  778.806
  21.400  881.886
  21.500  994.981
  21.600  924.530
  21.700 1097.026
  21.800 1167.025
  21.900 1012.066
  22.000  940.830
  22.100  870.306
  22.200  884.993
  22.300  742.265
  22.400  945.354
  22.500  907.716
  22.600  795.826
  22.700  975.106
  22.800 1096.463
  22.900 1165.095
  23.000 1485.171
  23.100 1519.647
  23.200 1224.947
  23.300  913.569
  23.400  905.017
  23.500  919.279
  23.600  981.752
  23.700 1066.193
  23.800 1311.041
  23.900 1350.950
  24.000 1484.083
  24.100 1327.114
  24.200 1432.682
  24.300 1197.168
  24.400 1060.199
  24.500  821.765
  24.600  727.378
  24.700  919.869
  24.800  866.439
  24.900  918.732
  25.000  921.282
  25.100 1016.330
  25.200  999.157
  25.300 1122.032
  25.400 1331.175
  25.500 1359.332
  25.600 1736.951
  25.700 1691.126
  25.800 1238.013
  25.900 1077.869
  26.000  961.853
  26.100  896.826
  26.200  785.204
  26.300  853.281
  26.400  935.854
  26.500 1186.649
  26.600 1448.491
  26.700 1759.505
  26.800 2349.494
  26.900 2389.563
  27.000 1879.686
  27.100 1415.177
  27.200 1199.553
  27.300 1010.035
  27.400  774.413
  27.500  861.284
  27.600  870.042
  27.700  959.387
  27.800 1117.281
  27.900 1406.268
  28.000 1614.095
  28.100 1461.751
  28.200 1296.733
  28.300 1137.089
  28.400  852.704
  28.500  814.422
  28.600  834.126
  28.700  977.705
  28.800  945.628
  28.900  809.366
  29.000  711.880
  29.100  792.330
  29.200  693.505
  29.300  617.250
  29.400  803.497
  29.500  691.827
  29.600  741.202
  29.700  818.321
  29.800 1131.489
  29.900 1269.750
  30.000 1458.347
  30.100 1320.355
  30.200 1179.164
  30.300  978.294
  30.400  669.206
  30.500  671.106
  30.600  668.967
  30.700  723.932
  30.800  833.311
  30.900  814.591
  31.000  697.501
  31.100 1005.822
  31.200 1155.491
  31.300 1388.752
  31.400 1555.763
  31.500 1367.204
  31.600 1532.827
  31.700 1505.574
  31.800 1467.052
  31.900 1272.771
  32.000 1142.435
  32.100 1054.880
  32.200 1151.951
  32.300 1187.761
  32.400  800.442
  32.500  674.751
  32.600  630.675
  32.700  751.924
  32.800  772.101
  32.900  611.741
  33.000  595.896
  33.100  597.880
  33.200  583.071
  33.300  708.191
  33.400  675.769
  33.500  625.038
  33.600  659.890
  33.700  666.749
  33.800  650.471
  33.900  811.780
  34.000  723.174
  34.100  615.994
  34.200  876.689
  34.300  640.584
  34.400  675.707
  34.500  783.873
  34.600 1269.689
  34.700 1512.697
  34.800 1616.832
  34.900 1796.688
  35.000 1939.795
  35.100 2690.893
  35.200 2712.297
  35.300 2103.383
  35.400 1280.625
  35.500 1101.053
  35.600 1001.587
  35.700  809.862
  35.800  718.995
  35.900  808.284
  36.000  735.058
  36.100  835.151
  36.200  876.597
  36.300  916.543
  36.400  942.667
  36.500  919.535
  36.600 1123.537
  36.700  948.275
  36.800 1017.934
  36.900  891.237
  37.000 1021.666
  37.100  807.743
  37.200  663.208
  37.300  871.988
  37.400  806.105
  37.500  804.406
  37.600  954.466
  37.700 1008.069
  37.800 1066.873
  37.900 1163.798
  38.000 1038.005
  38.100 1019.476
  38.200  941.263
  38.300  798.053
  38.400  710.968
  38.500  613.357
  38.600  581.032
  38.700  576.667
  38.800  562.921
  38.900  507.757
  39.000  638.454
  39.100  624.350
  39.200  510.098
  39.300  504.974
  39.400  748.838
  39.500  467.791
  39.600  749.871
  39.700  717.893
  39.800  570.768
  39.900  751.412
  40.000  747.369
  40.100  701.837
  40.200  912.843
  40.300  991.251
  40.400  836.162
  40.500  711.639
  40.600  879.725
  40.700  652.479
  40.800  952.846
  40.900  836.232
  41.000  777.309
  41.100  758.473
  41.200  841.226
  41.300  892.888
  41.400  908.026
  41.500  665.967
  41.600  709.638
  41.700  669.754
  41.800  678.294
  41.900  676.363
  42.000  772.470
  42.100  860.477
  42.200  801.562
  42.300  826.684
  42.400 1109.155
  42.500  994.095
  42.600  940.890
  42.700  922.404
  42.800  782.437
  42.900  657.417
  43.000  659.782
  43.100  649.570
  43.200  606.946
  43.300  508.754
  43.400  541.054
  43.500  659.016
  43.600  691.205
  43.700  499.639
  43.800  598.710
  43.900  599.389
  44.000  709.034