File: xrd_output/random_files/2M1-std-32.TXT
Sample
Comments
Filename	C:\WINDMAX\DATA\USERS\GEO\GEO_ER~1\Pyrenees\BULKMA~1\2M1-std2.raw
Goniometer	Ultima IV In-plane
Attachment	Auto sample changer (10 samples)
ScanningMode	2Theta/Theta
ScanningType	Continuos Scanning
X-Ray	40kV/44mA
DivSlit	2/3deg.
DivH.L.Slit	10mm
SctSlit	2/3deg.
RecSlit	0.3mm
Start	16
Stop	44
Step	0.02
Speed	0.3
Offset	0
  16.000  761.270
  16.100  800.838
  16.200  591.366
  16.300  702.215
  16.400  591.756
  16.500  710.530
  16.600  701.346
  16.700  717.469
  16.800  649.509
  16.900  636.193
  17.000  723.931
  17.100  761.816
  17.200  699.125
  17.300  557.267
  17.400  780.416
  17.500  768.612
  17.600  816.608
  17.700  865.090
  17.800 1076.696
  17.900 1320.188
  18.000 1334.266
  18.100 1150.829
  18.200  991.795
  18.300  711.401
  18.400  720.790
  18.500  630.995
  18.600  774.824
  18.700  805.996
  18.800  822.482
  18.900  672.848
  19.000  658.643
  19.100  811.644
  19.200  647.191
  19.300  679.926
  19.400  827.124
  19.500  787.175
  19.600  844.259
  19.700 1079.320
  19.800 1588.314
  19.900 2282.041
  20.000 2587.488
  20.100 2395.867
  20.200 1557.446
  20.300 1053.987
  20.400 1144.582
  20.500 1020.802
  20.600 1021.221
  20.700 1064.293
  20.800 1118.990
  20.900 1085.157
  21.000  798.026
  21.100  690.919
  21.200  757.324
  21.300  756.025
  21.400  900.806
  21.500  827.211
  21.600  993.222
  21.700  988.537
  21.800  952.556
  21.900  873.282
  22.000  746.100
  22.100  799.218
  22.200  884.044
  22.300  737.604
  22.400  763.900
  22.500 1007.588
  22.600  891.197
  22.700  845.251
  22.800  940.527
  22.900 1364.415
  23.000 1512.164
  23.100 1543.531
  23.200 1432.854
  23.300 1117.991
  23.400  796.810
  23.500  906.132
  23.600 1000.419
  23.700  924.530
  23.800 1155.275
  23.900 1516.060
  24.000 1606.001
  24.100 1488.074
  24.200 1373.229
  24.300 1226.958
  24.400  942.388
  24.500  931.772
  24.600  842.811
  24.700  751.204
  24.800  782.966
  24.900  828.606
  25.000  784.673
  25.100  888.311
  25.200 1031.726
  25.300 1264.709
  25.400 1159.494
  25.500 1429.376
  25.600 1678.679
  25.700 1652.156
  25.800 1225.470
  25.900  921.867
  26.000  824.252
  26.100 1002.284
  26.200  926.439
  26.300 1001.943
  26.400 1084.349
  26.500 1232.101
  26.600 1279.888
  26.700 1890.427
  26.800 2329.539
  26.900 2416.751
  27.000 1783.609
  27.100 1388.732
  27.200 1114.075
  27.300 1107.165
  27.400  845.318
  27.500  826.806
  27.600  984.759
  27.700 1016.148
  27.800 1218.829
  27.900 1350.381
  28.000 1776.313
  28.100 1429.380
  28.200 1350.575
  28.300 1129.447
  28.400  973.518
  28.500  772.468
  28.600  832.476
  28.700  916.423
  28.800  879.985
  28.900  835.868
  29.000  716.973
  29.100  746.733
  29.200  772.745
  29.300  608.806
  29.400  783.688
  29.500  781.509
  29.600  719.537
  29.700 1010.335
  29.800 1078.001
  29.900 1457.214
  30.000 1667.164
  30.100 1418.580
  30.200 1120.131
  30.300  820.041
  30.400  747.252
  30.500  696.814
  30.600  597.069
  30.700  740.836
  30.800  635.694
  30.900  710.836
  31.000  854.107
  31.100  967.337
  31.200 1173.783
  31.300 1485.552
  31.400 1538.224
  31.500 1376.730
  31.600 1566.599
  31.700 1459.606
  31.800 1418.610
  31.900 1056.216
  32.000 1105.136
  32.100 1071.881
  32.200 1267.973
  32.300  987.730
  32.400  741.947
  32.500  717.636
  32.600  776.408
  32.700  716.298
  32.800  625.975
  32.900  572.650
  33.000  744.753
  33.100  776.474
  33.200  591.313
  33.300  622.792
  33.400  668.062
  33.500  546.390
  33.600  636.391
  33.700  585.416
  33.800  604.486
  33.900  771.784
  34.000  835.059
  34.100  751.643
  34.200  738.732
  34.300  818.850
  34.400  750.068
  34.500  991.262
  34.600 1215.675
  34.700 1520.969
  34.800 1784.089
  34.900 1682.058
  35.000 2031.508
  35.100 2683.069
  35.200 2762.454
  35.300 1988.175
  35.400 1353.342
  35.500 1008.581
  35.600  769.375
  35.700  708.669
  35.800  809.838
  35.900  920.365
  36.000  751.303
  36.100  970.769
  36.200  964.923
  36.300  721.165
  36.400  892.913
  36.500  933.391
  36.600 1116.630
  36.700  960.503
  36.800 1152.822
  36.900  843.986
  37.000  807.170
  37.100  728.789
  37.200  743.128
  37.300  704.590
  37.400  783.452
  37.500  821.205
  37.600 1022.270
  37.700  979.429
  37.800 1000.667
  37.900 1136.441
  38.000 1097.660
  38.100  952.495
  38.200  858.866
  38.300  746.907
  38.400  887.951
  38.500  629.013
  38.600  725.553
  38.700  502.353
  38.800  578.651
  38.900  613.268
  39.000  547.067
  39.100  599.913
  39.200  534.032
  39.300  581.015
  39.400  564.854
  39.500  627.153
  39.600  491.529
  39.700  731.056
  39.800  531.205
  39.900  683.526
  40.000  798.024
  40.100  881.905
  40.200  872.265
  40.300  976.288
  40.400  773.040
  40.500  814.447
  40.600  691.917
  40.700  874.142
  40.800  739.013
  40.900  767.924
  41.000  903.438
  41.100  949.906
  41.200  749.742
  41.300  856.974
  41.400  870.967
  41.500  787.395
  41.600  859.331
  41.700  825.149
  41.800  661.240
  41.900  647.122
  42.000  854.011
  42.100  924.742
  42.200  970.408
  42.300  873.113
  42.400  878.079
  42.500  969.964
  42.600 1072.353
  42.700  898.829
  42.800  826.047
  42.900  704.090
  43.000  510.156
  43.100  622.076
  43.200  567.929
  43.300  628.169
  43.400  588.895
  43.500  628.511
  43.600  449.530
  43.700  542.940
  43.800  656.973
  43.900  586.526
  44.000  530.520