File: xrd_output/random_files/2M1-std-29.TXT
Sample
Comments
Filename	C:\WINDMAX\DATA\USERS\GEO\GEO_ER~1\Pyrenees\BULKMA~1\2M1-std2.raw
Goniometer	Ultima IV In-plane
Attachment	Auto sample changer (10 samples)
ScanningMode	2Theta/Theta
ScanningType	Continuos Scanning
X-Ray	40kV/44mA
DivSlit	2/3deg.
DivH.L.Slit	10mm
SctSlit	2/3deg.
RecSlit	0.3mm
Start	16
Stop	44
Step	0.02
Speed	0.3
Offset	0
  16.000  642.906
  16.100  665.568
  16.200  763.798
  16.300  713.860
  16.400  576.309
  16.500  709.164
  16.600  586.661
  16.700  680.093
  16.800  772.714
  16.900  584.822
  17.000  648.900
  17.100  632.692
  17.200  543.307
  17.300  543.128
  17.400  563.377
  17.500  806.175
  17.600  905.516
  17.700  783.143
  17.800 1135.018
  17.900 1436.045
  18.000 1246.846
  18.100 1222.220
  18.200 1020.715
  18.300  759.329
  18.400  649.955
  18.500  762.827
  18.600  675.045
  18.700  657.914
  18.800  713.127
  18.900  724.501
  19.000  675.861
  19.100  696.904
  19.200  676.234
  19.300  843.019
  19.400  885.802
  19.500  786.294
  19.600  845.434
  19.700 1280.076
  19.800 1546.282
  19.900 2270.392
  20.000 2791.565
  20.100 2433.891
  20.200 1488.896
  20.300 1203.294
  20.400  984.760
  20.500  850.637
  20.600  886.987
  20.700 1050.176
  20.800 1179.482
  20.900  992.354
  21.000 1008.763
  21.100  849.262
  21.200  868.440
  21.300  907.382
  21.400  913.061
  21.500  867.115
  21.600  920.761
  21.700 1124.147
  21.800 1087.038
  21.900  853.708
  22.000  718.807
  22.100  916.142
  22.200  910.340
  22.300  946.866
  22.400  881.386
  22.500  973.108
  22.600  922.551
  22.700  919.884
  22.800  988.916
  22.900 1148.260
  23.000 1503.043
  23.100 1585.955
  23.200 1213.078
  23.300  954.353
  23.400  887.017
  23.500  956.868
  23.600  869.038
  23.700 1048.724
  23.800 1069.700
  23.900 1544.026
  24.000 1512.647
  24.100 1363.639
  24.200 1285.562
  24.300 1094.039
  24.400  864.419
  24.500  741.086
  24.600  811.298
  24.700  747.774
  24.800  742.473
  24.900  975.237
  25.000  970.034
  25.100 1058.766
  25.200 1155.196
  25.300 1266.522
  25.400 1069.188
  25.500 1532.216
  25.600 1607.493
  25.700 1725.974
  25.800 1399.790
  25.900 1063.226
  26.000  864.397
  26.100  831.866
  26.200  967.910
  26.300  816.084
  26.400  886.560
  26.500 1106.751
  26.600 1393.718
  26.700 1908.526
  26.800 2309.082
  26.900 2269.506
  27.000 1922.180
  27.100 1273.473
  27.200 1159.300
  27.300  911.404
  27.400  923.231
  27.500  944.518
  27.600  889.525
  27.700  999.365
  27.800 1105.824
  27.900 1498.398
  28.000 1777.416
  28.100 1429.396
  28.200 1287.454
  28.300 1058.467
  28.400  946.020
  28.500  976.757
  28.600  961.684
  28.700  915.201
  28.800  863.921
  28.900  952.400
  29.000  849.378
  29.100  903.871
  29.200  858.592
  29.300  721.405
  29.400  755.914
  29.500  667.687
  29.600  684.116
  29.700  884.767
  29.800 1046.793
  29.900 1294.917
  30.000 1528.817
  30.100 1394.175
  30.200 1178.854
  30.300  842.509
  30.400  846.759
  30.500  847.514
  30.600  683.034
  30.700  760.856
  30.800  856.439
  30.900  708.396
  31.000  926.778
  31.100  934.728
  31.200 1142.434
  31.300 1343.836
  31.400 1574.629
  31.500 1489.300
  31.600 1582.490
  31.700 1463.635
  31.800 1229.838
  31.900 1050.666
  32.000 1026.735
  32.100 1129.406
  32.200 1285.413
  32.300 1095.659
  32.400  789.905
  32.500  831.078
  32.600  631.748
  32.700  674.599
  32.800  579.980
  32.900  648.880
  33.000  738.895
  33.100  671.003
  33.200  770.038
  33.300  710.980
  33.400  581.160
  33.500  706.809
  33.600  622.114
  33.700  705.772
  33.800  624.268
  33.900  781.980
  34.000  634.091
  34.100  652.795
  34.200  884.568
  34.300  726.716
  34.400  823.107
  34.500  931.358
  34.600 1142.679
  34.700 1497.837
  34.800 1791.978
  34.900 1699.650
  35.000 2106.859
  35.100 2638.330
  35.200 2827.052
  35.300 2191.665
  35.400 1291.678
  35.500  961.276
  35.600  978.566
  35.700  877.088
  35.800  680.187
  35.900  949.815
  36.000  913.276
  36.100  741.005
  36.200  811.214
  36.300  772.503
  36.400  855.707
  36.500 1082.032
  36.600 1010.075
  36.700  958.478
  36.800  991.334
  36.900 1045.241
  37.000  893.580
  37.100  841.615
  37.200  831.494
  37.300  692.740
  37.400  810.355
  37.500  940.048
  37.600  884.842
  37.700 1154.843
  37.800 1057.723
  37.900 1285.250
  38.000 1237.267
  38.100 1114.624
  38.200  910.355
  38.300  717.906
  38.400  809.003
  38.500  687.641
  38.600  719.658
  38.700  547.167
  38.800  731.984
  38.900  586.937
  39.000  672.639
  39.100  578.557
  39.200  670.468
  39.300  623.557
  39.400  718.370
  39.500  625.364
  39.600  657.648
  39.700  551.125
  39.800  519.052
  39.900  698.433
  40.000  602.464
  40.100  731.409
  40.200  740.443
  40.300  937.904
  40.400  935.024
  40.500  682.371
  40.600  693.119
  40.700  751.246
  40.800  829.655
  40.900  894.734
  41.000  858.424
  41.100  736.818
  41.200  680.965
  41.300  889.475
  41.400  744.506
  41.500  727.860
  41.600  658.661
  41.700  724.915
  41.800  629.106
  41.900  763.756
  42.000  850.463
  42.100  878.025
  42.200  904.533
  42.300  971.251
  42.400  875.322
  42.500 1010.248
  42.600 1013.808
  42.700  962.556
  42.800  842.705
  42.900  546.496
  43.000  642.617
  43.100  549.954
  43.200  576.499
  43.300  452.063
  43.400  459.309
  43.500  680.385
  43.600  470.323
  43.700  612.631
  43.800  554.501
  43.900  564.944
  44.000  482.613