File: xrd_output/random_files/2M1-std-37.TXT
Sample
Comments
Filename	C:\WINDMAX\DATA\USERS\GEO\GEO_ER~1\Pyrenees\BULKMA~1\2M1-std2.raw
Goniometer	Ultima IV In-plane
Attachment	Auto sample changer (10 samples)
ScanningMode	2Theta/Theta
ScanningType	Continuos Scanning
X-Ray	40kV/44mA
DivSlit	2/3deg.
DivH.L.Slit	10mm
SctSlit	2/3deg.
RecSlit	0.3mm
Start	16
Stop	44
Step	0.02
Speed	0.3
Offset	0
  16.000  613.261
  16.100  626.931
  16.200  579.592
  16.300  639.396
  16.400  546.590
  16.500  620.075
  16.600  659.110
  16.700  564.340
  16.800  650.106
  16.900  679.442
  17.000  770.252
  17.100  620.090
  17.200  540.214
  17.300  526.738
  17.400  630.062
  17.500  803.102
  17.600  877.737
  17.700  963.985
  17.800 1143.641
  17.900 1229.944
  18.000 1276.030
  18.100 1270.368
  18.200 1035.997
  18.300  840.061
  18.400  745.317
  18.500  803.773
  18.600  888.284
  18.700  795.402
  18.800  792.667
  18.900  822.349
  19.000  743.432
  19.100  791.464
  19.200  751.518
  19.300  654.404
  19.400  732.226
  19.500  688.461
  19.600  935.439
  19.700 1057.318
  19.800 1637.258
  19.900 2253.494
  20.000 2705.267
  20.100 2290.342
  20.200 1424.579
  20.300 1184.805
  20.400 1039.282
  20.500  894.494
  20.600  917.060
  20.700 1103.970
  20.800 1214.103
  20.900 1163.744
  21.000  889.321
  21.100  800.128
  21.200  812.627
  21.300  708.889
  21.400  849.239
  21.500  808.834
  21.600 1086.857
  21.700 1148.213
  21.800 1075.141
  21.900  856.883
  22.000  975.839
  22.100  868.352
  22.200  837.318
  22.300  728.368
  22.400  883.837
  22.500  830.389
  22.600  823.371
  22.700  991.158
  22.800  921.893
  22.900 1305.773
  23.000 1468.114
  23.100 1658.982
  23.200 1433.480
  23.300  906.757
  23.400  999.489
  23.500  841.666
  23.600  844.309
  23.700 1122.038
  23.800 1081.044
  23.900 1491.530
  24.000 1638.825
  24.100 1383.858
  24.200 1371.127
  24.300 1200.573
  24.400  956.887
  24.500  849.053
  24.600  781.933
  24.700  750.830
  24.800  728.768
  24.900  910.286
  25.000 1030.365
  25.100 1058.961
  25.200 1012.894
  25.300 1138.759
  25.400 1295.952
  25.500 1339.764
  25.600 1620.306
  25.700 1549.541
  25.800 1362.856
  25.900 1061.710
  26.000  968.389
  26.100  895.335
  26.200  771.499
  26.300  866.889
  26.400 1103.763
  26.500 1113.073
  26.600 1356.467
  26.700 1743.866
  26.800 2228.248
  26.900 2386.777
  27.000 1751.057
  27.100 1470.207
  27.200 1189.596
  27.300 1055.928
  27.400 1009.311
  27.500  800.030
  27.600  946.443
  27.700  940.849
  27.800 1242.785
  27.900 1369.846
  28.000 1777.121
  28.100 1544.852
  28.200 1236.462
  28.300 1168.273
  28.400  919.720
  28.500  787.483
  28.600  937.150
  28.700  903.515
  28.800 1012.225
  28.900 1009.068
  29.000  761.519
  29.100  921.171
  29.200  790.879
  29.300  662.310
  29.400  784.398
  29.500  858.610
  29.600  776.387
  29.700  890.259
  29.800 1123.339
  29.900 1286.736
  30.000 1457.374
  30.100 1327.392
  30.200 1030.975
  30.300  870.376
  30.400  676.858
  30.500  792.355
  30.600  804.439
  30.700  780.715
  30.800  703.181
  30.900  683.177
  31.000  952.561
  31.100 1084.507
  31.200 1269.099
  31.300 1422.071
  31.400 1472.218
  31.500 1516.555
  31.600 1506.379
  31.700 1521.576
  31.800 1359.539
  31.900 1252.355
  32.000 1086.618
  32.100 1083.791
  32.200 1196.111
  32.300 1023.681
  32.400  724.905
  32.500  674.311
  32.600  686.299
  32.700  622.880
  32.800  814.315
  32.900  571.275
  33.000  777.205
  33.100  691.398
  33.200  755.933
  33.300  667.184
  33.400  570.083
  33.500  616.292
  33.600  510.643
  33.700  750.941
  33.800  578.600
  33.900  707.131
  34.000  752.428
  34.100  664.318
  34.200  788.839
  34.300  599.266
  34.400  815.030
  34.500  922.250
  34.600 1274.424
  34.700 1602.867
  34.800 1760.860
  34.900 1822.460
  35.000 2107.748
  35.100 2614.459
  35.200 2821.438
  35.300 2065.801
  35.400 1368.934
  35.500 1014.157
  35.600  865.498
  35.700  878.831
  35.800  920.808
  35.900  795.682
  36.000  794.396
  36.100  806.619
  36.200  955.979
  36.300  824.702
  36.400  782.490
  36.500 1046.021
  36.600 1138.484
  36.700 1101.528
  36.800  990.295
  36.900 1022.856
  37.000  901.004
  37.100  812.769
  37.200  663.368
  37.300  759.914
  37.400  880.481
  37.500  923.420
  37.600  812.129
  37.700 1141.984
  37.800 1029.188
  37.900 1143.652
  38.000 1035.604
  38.100 1091.858
  38.200  838.196
  38.300  785.765
  38.400  796.956
  38.500  568.742
  38.600  525.778
  38.700  720.485
  38.800  630.672
  38.900  593.360
  39.000  523.789
  39.100  567.589
  39.200  618.061
  39.300  576.934
  39.400  699.510
  39.500  717.794
  39.600  616.544
  39.700  695.450
  39.800  565.323
  39.900  577.121
  40.000  640.839
  40.100  670.173
  40.200  776.058
  40.300  933.945
  40.400  933.796
  40.500  938.013
  40.600  836.426
  40.700  797.893
  40.800  918.457
  40.900  836.264
  41.000  949.444
  41.100  755.972
  41.200  919.672
  41.300  761.391
  41.400  810.379
  41.500  759.985
  41.600  628.368
  41.700  818.124
  41.800  601.014
  41.900  827.221
  42.000  690.073
  42.100  897.134
  42.200  949.036
  42.300  922.231
  42.400  921.868
  42.500 1064.603
  42.600  913.455
  42.700 1011.308
  42.800  772.860
  42.900  669.272
  43.000  538.441
  43.100  617.480
  43.200  599.063
  43.300  532.851
  43.400  557.385
  43.500  482.533
  43.600  472.189
  43.700  614.319
  43.800  552.410
  43.900  717.161
  44.000  591.481