File: xrd_output/random_files/2M1-std-13.TXT
Sample
Comments
Filename	C:\WINDMAX\DATA\USERS\GEO\GEO_ER~1\Pyrenees\BULKMA~1\2M1-std2.raw
Goniometer	Ultima IV In-plane
Attachment	Auto sample changer (10 samples)
ScanningMode	2Theta/Theta
ScanningType	Continuos Scanning
X-Ray	40kV/44mA
DivSlit	2/3deg.
DivH.L.Slit	10mm
SctSlit	2/3deg.
RecSlit	0.3mm
Start	16
Stop	44
Step	0.02
Speed	0.3
Offset	0
  16.000  727.006
  16.100  651.084
  16.200  787.138
  16.300  592.593
  16.400  509.236
  16.500  679.014
  16.600  739.757
  16.700  521.187
  16.800  726.355
  16.900  640.353
  17.000  714.432
  17.100  655.182
  17.200  613.800
  17.300  742.885
  17.400  598.233
  17.500  653.915
  17.600  894.794
  17.700  803.205
  17.800 1156.031
  17.900 1373.952
  18.000 1212.808
  18.100 1178.552
  18.200  870.977
  18.300  723.274
  18.400  704.785
  18.500  811.194
  18.600  646.718
  18.700  764.541
  18.800  750.862
  18.900  706.443
  19.000  649.517
  19.100  642.603
  19.200  701.243
  19.300  638.823
  19.400  706.691
  19.500  774.124
  19.600  876.235
  19.700 1271.802
  19.800 1574.529
  19.900 2220.674
  20.000 2594.936
  20.100 2244.341
  20.200 1484.621
  20.300 1167.432
  20.400 1003.099
  20.500  836.622
  20.600  930.694
  20.700 1213.242
  20.800 1218.136
  20.900 1219.873
  21.000  971.751
  21.100  762.202
  21.200  705.331
  21.300  772.141
  21.400  946.329
  21.500  801.398
  21.600 1008.403
  21.700 1025.400
  21.800  950.547
  21.900  834.309
  22.000  881.928
  22.100  815.239
  22.200  912.712
  22.300  946.499
  22.400  766.358
  22.500  914.550
  22.600  900.252
  22.700  866.642
  22.800 1006.234
  22.900 1207.950
  23.000 1440.532
  23.100 1709.598
  23.200 1376.287
  23.300 1124.325
  23.400  776.225
  23.500  793.098
  23.600  995.289
  23.700  884.337
  23.800 1169.457
  23.900 1379.359
  24.000 1511.552
  24.100 1340.607
  24.200 1299.259
  24.300  978.830
  24.400 1001.182
  24.500  804.965
  24.600  700.780
  24.700  699.452
  24.800  825.100
  24.900  990.522
  25.000  851.590
  25.100  933.802
  25.200 1018.789
  25.300 1155.104
  25.400 1226.274
  25.500 1311.936
  25.600 1601.843
  25.700 1666.754
  25.800 1313.134
  25.900  891.701
  26.000  954.851
  26.100  809.347
  26.200  834.491
  26.300  809.692
  26.400 1071.074
  26.500 1049.171
  26.600 1492.956
  26.700 1806.399
  26.800 2377.320
  26.900 2232.964
  27.000 1850.226
  27.100 1491.685
  27.200 1016.281
  27.300  958.938
  27.400  856.850
  27.500  966.644
  27.600 1009.401
  27.700 1102.086
  27.800 1055.519
  27.900 1380.564
  28.000 1647.290
  28.100 1410.630
  28.200 1170.944
  28.300 1117.396
  28.400  962.485
  28.500  969.444
  28.600  750.630
  28.700  931.753
  28.800  921.487
  28.900  759.960
  29.000  876.456
  29.100  743.829
  29.200  742.437
  29.300  666.025
  29.400  751.229
  29.500  657.629
  29.600  732.057
  29.700  873.344
  29.800 1189.134
  29.900 1344.510
  30.000 1592.584
  30.100 1465.141
  30.200 1108.806
  30.300  998.385
  30.400  848.689
  30.500  724.859
  30.600  663.658
  30.700  619.681
  30.800  824.136
  30.900  715.051
  31.000  886.494
  31.100 1064.411
  31.200 1279.027
  31.300 1407.578
  31.400 1530.553
  31.500 1530.910
  31.600 1387.799
  31.700 1426.414
  31.800 1402.042
  31.900 1273.750
  32.000 1021.868
  32.100 1060.565
  32.200 1088.022
  32.300  978.895
  32.400  733.098
  32.500  725.370
  32.600  687.603
  32.700  763.643
  32.800  607.842
  32.900  689.816
  33.000  768.314
  33.100  619.406
  33.200  555.848
  33.300  645.332
  33.400  664.667
  33.500  719.877
  33.600  746.515
  33.700  645.027
  33.800  552.927
  33.900  653.479
  34.000  743.314
  34.100  683.893
  34.200  878.104
  34.300  687.003
  34.400  853.653
  34.500  972.099
  34.600 1276.767
  34.700 1403.663
  34.800 1799.902
  34.900 1778.856
  35.000 2130.031
  35.100 2744.465
  35.200 2897.095
  35.300 2127.435
  35.400 1314.144
  35.500 1005.565
  35.600  981.677
  35.700  733.884
  35.800  667.475
  35.900  760.740
  36.000  755.847
  36.100  947.829
  36.200  770.251
  36.300  859.276
  36.400  945.107
  36.500 1059.025
  36.600 1087.393
  36.700 1149.985
  36.800  906.636
  36.900  981.827
  37.000  984.183
  37.100  768.857
  37.200  688.823
  37.300  720.037
  37.400  827.535
  37.500  783.450
  37.600  849.518
  37.700 1073.384
  37.800  992.126
  37.900 1128.078
  38.000 1197.702
  38.100 1029.945
  38.200  995.649
  38.300  864.773
  38.400  745.241
  38.500  572.916
  38.600  740.627
  38.700  679.799
  38.800  573.291
  38.900  557.526
  39.000  639.280
  39.100  471.604
  39.200  514.422
  39.300  543.260
  39.400  727.493
  39.500  586.189
  39.600  648.654
  39.700  564.462
  39.800  682.148
  39.900  647.195
  40.000  562.703
  40.100  798.947
  40.200  902.782
  40.300  761.420
  40.400  801.902
  40.500  805.285
  40.600  930.593
  40.700  846.423
  40.800  836.086
  40.900  829.394
  41.000  796.181
  41.100  770.419
  41.200  854.750
  41.300  636.750
  41.400  863.750
  41.500  740.952
  41.600  736.487
  41.700  654.229
  41.800  774.153
  41.900  835.242
  42.000  671.273
  42.100  826.729
  42.200 1036.517
  42.300 1084.707
  42.400 1035.807
  42.500  937.265
  42.600  947.599
  42.700  983.424
  42.800  799.542
  42.900  742.709
  43.000  746.450
  43.100  704.606
  43.200  683.490
  43.300  447.026
  43.400  610.923
  43.500  511.214
  43.600  663.164
  43.700  430.537
  43.800  585.168
  43.900  518.229
  44.000  728.727