File: xrd_output/random_files/2M1-std-36.TXT
Sample
Comments
Filename	C:\WINDMAX\DATA\USERS\GEO\GEO_ER~1\Pyrenees\BULKMA~1\2M1-std2.raw
Goniometer	Ultima IV In-plane
Attachment	Auto sample changer (10 samples)
ScanningMode	2Theta/Theta
ScanningType	Continuos Scanning
X-Ray	40kV/44mA
DivSlit	2/3deg.
DivH.L.Slit	10mm
SctSlit	2/3deg.
RecSlit	0.3mm
Start	16
Stop	44
Step	0.02
Speed	0.3
Offset	0
  16.000  672.127
  16.100  606.278
  16.200  800.447
  16.300  590.861
  16.400  504.184
  16.500  758.176
  16.600  646.911
  16.700  656.399
  16.800  552.658
  16.900  615.326
  17.000  684.573
  17.100  671.862
  17.200  758.230
  17.300  601.968
  17.400  617.288
  17.500  734.241
  17.600  899.020
  17.700  795.671
  17.800 1012.478
  17.900 1403.680
  18.000 1373.547
  18.100 1238.539
  18.200  870.373
  18.300  719.430
  18.400  842.900
  18.500  720.929
  18.600  646.463
  18.700  637.441
  18.800  835.361
  18.900  606.102
  19.000  723.723
  19.100  702.959
  19.200  761.412
  19.300  651.824
  19.400  852.034
  19.500  829.198
  19.600  911.032
  19.700 1070.177
  19.800 1388.750
  19.900 2226.575
  20.000 2623.851
  20.100 2337.393
  20.200 1627.834
  20.300 1201.063
  20.400 1101.193
  20.500  970.188
  20.600  958.826
  20.700  991.563
  20.800 1093.365
  20.900 1022.613
  21.000 1007.194
  21.100  779.749
  21.200  806.962
  21.300  876.346
  21.400  900.141
  21.500  880.581
  21.600 1096.284
  21.700 1172.313
  21.800  984.227
  21.900 1055.721
  22.000  925.594
  22.100  850.342
  22.200  805.668
  22.300  950.553
  22.400  865.325
  22.500  874.006
  22.600  978.241
  22.700  885.435
  22.800 1121.685
  22.900 1371.335
  23.000 1452.448
  23.100 1734.204
  23.200 1346.362
  23.300 1125.349
  23.400  779.973
  23.500  823.541
  23.600 1027.673
  23.700 1021.506
  23.800 1165.028
  23.900 1376.941
  24.000 1660.074
  24.100 1360.285
  24.200 1423.256
  24.300 1020.981
  24.400  926.991
  24.500  728.581
  24.600  875.057
  24.700  834.205
  24.800  742.487
  24.900  788.243
  25.000  848.766
  25.100  929.825
  25.200 1023.761
  25.300 1185.612
  25.400 1250.574
  25.500 1406.424
  25.600 1771.477
  25.700 1615.916
  25.800 1352.370
  25.900 1066.640
  26.000  799.503
  26.100  757.038
  26.200  925.665
  26.300  935.162
  26.400  860.467
  26.500 1246.709
  26.600 1510.184
  26.700 1890.661
  26.800 2136.880
  26.900 2276.817
  27.000 1983.415
  27.100 1407.405
  27.200 1001.538
  27.300  862.694
  27.400  836.784
  27.500  852.573
  27.600  961.900
  27.700 1143.726
  27.800 1074.680
  27.900 1558.808
  28.000 1669.717
  28.100 1591.592
  28.200 1354.205
  28.300  950.373
  28.400  976.414
  28.500  851.626
  28.600  882.033
  28.700  843.932
  28.800  822.113
  28.900 1008.900
  29.000  931.957
  29.100  782.527
  29.200  819.858
  29.300  773.935
  29.400  704.006
  29.500  736.697
  29.600  772.669
  29.700  840.395
  29.800 1052.802
  29.900 1326.418
  30.000 1512.837
  30.100 1535.521
  30.200 1097.772
  30.300  851.269
  30.400  673.371
  30.500  651.967
  30.600  830.926
  30.700  754.493
  30.800  697.873
  30.900  721.034
  31.000  749.563
  31.100  833.783
  31.200 1261.636
  31.300 1302.270
  31.400 1598.077
  31.500 1528.358
  31.600 1563.052
  31.700 1466.968
  31.800 1346.397
  31.900 1074.494
  32.000 1161.680
  32.100  990.228
  32.200 1276.795
  32.300 1164.994
  32.400  837.889
  32.500  654.733
  32.600  632.021
  32.700  756.844
  32.800  781.536
  32.900  805.320
  33.000  673.487
  33.100  702.599
  33.200  760.763
  33.300  742.464
  33.400  665.582
  33.500  624.759
  33.600  519.517
  33.700  697.998
  33.800  738.125
  33.900  595.573
  34.000  791.612
  34.100  827.071
  34.200  899.504
  34.300  705.161
  34.400  718.213
  34.500  877.148
  34.600 1147.015
  34.700 1585.286
  34.800 1603.574
  34.900 1806.134
  35.000 2113.946
  35.100 2712.475
  35.200 2688.116
  35.300 2104.599
  35.400 1290.738
  35.500 1065.536
  35.600  753.473
  35.700  927.132
  35.800  876.654
  35.900  752.262
  36.000  761.936
  36.100  954.378
  36.200  790.623
  36.300  714.596
  36.400  753.135
  36.500  943.129
  36.600 1098.708
  36.700  967.862
  36.800 1070.783
  36.900  863.785
  37.000  897.950
  37.100  678.898
  37.200  756.388
  37.300  658.194
  37.400  736.970
  37.500  820.205
  37.600  987.773
  37.700 1096.903
  37.800 1179.798
  37.900 1260.697
  38.000 1161.034
  38.100 1108.155
  38.200  955.890
  38.300  718.812
  38.400  801.005
  38.500  669.670
  38.600  625.334
  38.700  679.507
  38.800  556.684
  38.900  609.998
  39.000  581.221
  39.100  667.719
  39.200  624.027
  39.300  706.442
  39.400  589.059
  39.500  715.234
  39.600  715.254
  39.700  654.680
  39.800  554.832
  39.900  583.209
  40.000  543.677
  40.100  725.825
  40.200  730.626
  40.300  877.079
  40.400  807.332
  40.500  888.032
  40.600  883.969
  40.700  652.722
  40.800  922.894
  40.900  810.140
  41.000  955.092
  41.100  884.970
  41.200  910.070
  41.300  698.681
  41.400  916.100
  41.500  785.428
  41.600  842.965
  41.700  670.402
  41.800  758.083
  41.900  701.777
  42.000  644.557
  42.100  814.293
  42.200  925.618
  42.300  857.769
  42.400  896.329
  42.500 1080.190
  42.600  996.146
  42.700 1072.239
  42.800  867.247
  42.900  732.839
  43.000  564.592
  43.100  574.805
  43.200  517.998
  43.300  439.375
  43.400  418.690
  43.500  466.125
  43.600  523.743
  43.700  549.749
  43.800  596.439
  43.900  490.108
  44.000  623.380