File: xrd_output/random_files/2M1-std-9.TXT
Sample
Comments
Filename	C:\WINDMAX\DATA\USERS\GEO\GEO_ER~1\Pyrenees\BULKMA~1\2M1-std2.raw
Goniometer	Ultima IV In-plane
Attachment	Auto sample changer (10 samples)
ScanningMode	2Theta/Theta
ScanningType	Continuos Scanning
X-Ray	40kV/44mA
DivSlit	2/3deg.
DivH.L.Slit	10mm
SctSlit	2/3deg.
RecSlit	0.3mm
Start	16
Stop	44
Step	0.02
Speed	0.3
Offset	0
  16.000  807.365
  16.100  610.883
  16.200  584.350
  16.300  709.130
  16.400  758.715
  16.500  734.851
  16.600  682.811
  16.700  668.131
  16.800  538.047
  16.900  679.927
  17.000  530.385
  17.100  598.544
  17.200  644.538
  17.300  541.507
  17.400  591.018
  17.500  694.677
  17.600  790.894
  17.700 1030.709
  17.800 1151.297
  17.900 1357.150
  18.000 1274.973
  18.100 1209.077
  18.200  866.216
  18.300  683.126
  18.400  861.056
  18.500  660.959
  18.600  742.696
  18.700  626.443
  18.800  662.562
  18.900  681.648
  19.000  695.176
  19.100  704.173
  19.200  674.259
  19.300  754.562
  19.400  656.867
  19.500  759.198
  19.600 1004.863
  19.700 1180.190
  19.800 1428.204
  19.900 2248.793
  20.000 2643.453
  20.100 2238.894
  20.200 1507.125
  20.300 1152.660
  20.400 1061.807
  20.500 1039.765
  20.600  956.685
  20.700 1051.267
  20.800 1280.319
  20.900 1046.109
  21.000  920.539
  21.100  742.983
  21.200  707.720
  21.300  842.165
  21.400  760.756
  21.500 1018.531
  21.600 1013.150
  21.700  997.657
  21.800 1061.360
  21.900  923.070
  22.000  839.739
  22.100  850.179
  22.200  740.953
  22.300  940.256
  22.400  960.141
  22.500  854.224
  22.600  870.521
  22.700  924.888
  22.800 1075.454
  22.900 1205.450
  23.000 1486.895
  23.100 1671.937
  23.200 1327.638
  23.300 1045.736
  23.400  745.913
  23.500  860.381
  23.600  934.017
  23.700 1010.829
  23.800 1207.465
  23.900 1510.145
  24.000 1620.040
  24.100 1546.674
  24.200 1275.718
  24.300 1152.535
  24.400  957.547
  24.500  721.080
  24.600  910.767
  24.700  778.707
  24.800  922.726
  24.900  927.664
  25.000  974.903
  25.100  950.847
  25.200 1165.654
  25.300 1135.434
  25.400 1129.907
  25.500 1520.804
  25.600 1765.589
  25.700 1573.213
  25.800 1352.790
  25.900 1136.153
  26.000  819.375
  26.100  859.201
  26.200  891.030
  26.300 1035.860
  26.400  937.374
  26.500 1157.205
  26.600 1515.404
  26.700 1848.380
  26.800 2264.308
  26.900 2326.004
  27.000 1869.096
  27.100 1338.912
  27.200 1004.973
  27.300  996.570
  27.400  803.109
  27.500  824.820
  27.600  829.915
  27.700  960.423
  27.800 1179.931
  27.900 1554.965
  28.000 1609.757
  28.100 1605.538
  28.200 1307.815
  28.300 1104.565
  28.400  894.327
  28.500  816.099
  28.600  783.839
  28.700 1043.858
  28.800 1026.464
  28.900  777.424
  29.000  794.953
  29.100  778.766
  29.200  842.501
  29.300  688.068
  29.400  676.662
  29.500  795.030
  29.600  671.802
  29.700  794.796
  29.800  944.403
  29.900 1405.043
  30.000 1506.793
  30.100 1330.686
  30.200 1145.365
  30.300 1017.656
  30.400  715.350
  30.500  772.163
  30.600  811.871
  30.700  753.598
  30.800  821.894
  30.900  640.060
  31.000  802.345
  31.100  950.097
  31.200 1065.057
  31.300 1401.049
  31.400 1661.955
  31.500 1555.265
  31.600 1534.554
  31.700 1518.580
  31.800 1370.354
  31.900 1293.785
  32.000 1064.360
  32.100 1027.579
  32.200 1099.110
  32.300 1200.512
  32.400  729.141
  32.500  647.067
  32.600  649.670
  32.700  628.171
  32.800  716.443
  32.900  596.949
  33.000  624.904
  33.100  579.351
  33.200  704.079
  33.300  707.253
  33.400  622.624
  33.500  586.815
  33.600  627.230
  33.700  533.769
  33.800  736.686
  33.900  592.182
  34.000  770.283
  34.100  864.987
  34.200  752.055
  34.300  784.832
  34.400  801.669
  34.500  989.743
  34.600 1275.150
  34.700 1498.849
  34.800 1718.205
  34.900 1736.799
  35.000 2008.880
  35.100 2619.937
  35.200 2796.494
  35.300 2033.179
  35.400 1457.957
  35.500 1133.622
  35.600  756.076
  35.700  714.896
  35.800  889.914
  35.900  809.836
  36.000  775.245
  36.100  731.085
  36.200  963.521
  36.300  702.310
  36.400  901.941
  36.500  865.541
  36.600 1100.382
  36.700 1096.900
  36.800 1130.466
  36.900 1057.330
  37.000 1043.187
  37.100  701.140
  37.200  871.571
  37.300  744.352
  37.400  792.302
  37.500  809.008
  37.600  877.301
  37.700 1128.523
  37.800 1036.948
  37.900 1132.818
  38.000 1038.819
  38.100 1085.756
  38.200  841.288
  38.300  717.510
  38.400  825.029
  38.500  807.101
  38.600  622.271
  38.700  741.370
  38.800  568.619
  38.900  689.831
  39.000  668.146
  39.100  551.866
  39.200  698.774
  39.300  602.697
  39.400  556.234
  39.500  637.205
  39.600  677.227
  39.700  723.321
  39.800  539.304
  39.900  556.302
  40.000  557.939
  40.100  746.736
  40.200  715.244
  40.300  897.588
  40.400  745.581
  40.500  795.995
  40.600  684.856
  40.700  803.097
  40.800  773.948
  40.900  950.810
  41.000  754.638
  41.100  766.843
  41.200  862.750
  41.300  744.057
  41.400  737.658
  41.500  863.784
  41.600  818.598
  41.700  743.303
  41.800  771.926
  41.900  748.273
  42.000  882.717
  42.100  784.273
  42.200 1041.007
  42.300  880.187
  42.400  885.093
  42.500  928.445
  42.600  919.370
  42.700  949.590
  42.800  667.115
  42.900  754.574
  43.000  740.912
  43.100  643.518
  43.200  682.614
  43.300  445.413
  43.400  660.580
  43.500  518.239
  43.600  466.287
  43.700  542.549
  43.800  717.336
  43.900  679.758
  44.000  710.943