File: xrd_output/random_files/2M1-std-44.TXT
Sample
Comments
Filename	C:\WINDMAX\DATA\USERS\GEO\GEO_ER~1\Pyrenees\BULKMA~1\2M1-std2.raw
Goniometer	Ultima IV In-plane
Attachment	Auto sample changer (10 samples)
ScanningMode	2Theta/Theta
ScanningType	Continuos Scanning
X-Ray	40kV/44mA
DivSlit	2/3deg.
DivH.L.Slit	10mm
SctSlit	2/3deg.
RecSlit	0.3mm
Start	16
Stop	44
Step	0.02
Speed	0.3
Offset	0
  16.000  612.541
  16.100  773.675
  16.200  801.722
  16.300  598.774
  16.400  732.655
  16.500  523.362
  16.600  543.007
  16.700  650.731
  16.800  765.561
  16.900  521.755
  17.000  581.442
  17.100  690.888
  17.200  544.735
  17.300  566.447
  17.400  807.351
  17.500  626.341
  17.600  740.011
  17.700  891.022
  17.800 1196.492
  17.900 1434.841
  18.000 1367.039
  18.100 1117.827
  18.200 1050.346
  18.300  700.657
  18.400  737.354
  18.500  810.001
  18.600  653.308
  18.700  856.238
  18.800  840.797
  18.900  817.490
  19.000  713.706
  19.100  625.452
  19.200  682.525
  19.300  855.481
  19.400  819.319
  19.500  688.755
  19.600  804.040
  19.700 1229.092
  19.800 1615.439
  19.900 2189.235
  20.000 2568.883
  20.100 2267.166
  20.200 1393.859
  20.300 1292.178
  20.400 1037.681
  20.500  904.657
  20.600  903.989
  20.700 1108.244
  20.800 1125.923
  20.900 1086.567
  21.000  904.228
  21.100  849.037
  21.200  798.353
  21.300  680.210
  21.400  943.597
  21.500  834.327
  21.600  925.887
  21.700 1024.227
  21.800 1076.840
  21.900 1012.232
  22.000  980.238
  22.100  713.427
  22.200  779.561
  22.300  733.643
  22.400  837.787
  22.500  869.544
  22.600  934.375
  22.700  980.957
  22.800  952.968
  22.900 1288.143
  23.000 1485.004
  23.100 1551.052
  23.200 1208.980
  23.300  985.184
  23.400  977.482
  23.500  746.248
  23.600  822.858
  23.700  940.986
  23.800 1094.730
  23.900 1459.914
  24.000 1484.203
  24.100 1482.926
  24.200 1397.657
  24.300 1098.254
  24.400  884.835
  24.500  856.015
  24.600  885.671
  24.700  829.519
  24.800  924.156
  24.900  828.299
  25.000  780.835
  25.100 1105.512
  25.200 1105.432
  25.300 1270.269
  25.400 1100.131
  25.500 1400.996
  25.600 1737.752
  25.700 1549.837
  25.800 1358.346
  25.900  981.592
  26.000  941.341
  26.100  985.480
  26.200  833.423
  26.300  985.666
  26.400  948.591
  26.500 1050.844
  26.600 1484.739
  26.700 1900.637
  26.800 2288.270
  26.900 2378.352
  27.000 1744.550
  27.100 1412.812
  27.200  964.461
  27.300 1076.417
  27.400  945.894
  27.500  831.780
  27.600 1053.858
  27.700 1100.944
  27.800 1168.767
  27.900 1507.468
  28.000 1777.827
  28.100 1641.452
  28.200 1246.743
  28.300 1067.654
  28.400  844.959
  28.500  881.928
  28.600  894.542
  28.700  829.864
  28.800  933.248
  28.900  826.729
  29.000  794.323
  29.100  779.340
  29.200  838.615
  29.300  667.382
  29.400  695.092
  29.500  829.869
  29.600  811.970
  29.700  972.470
  29.800 1136.692
  29.900 1404.299
  30.000 1426.267
  30.100 1438.913
  30.200 1067.204
  30.300  936.393
  30.400  700.860
  30.500  649.175
  30.600  703.289
  30.700  652.746
  30.800  812.566
  30.900  632.262
  31.000  778.697
  31.100 1081.261
  31.200 1155.339
  31.300 1535.948
  31.400 1622.058
  31.500 1365.722
  31.600 1488.207
  31.700 1441.515
  31.800 1231.636
  31.900 1256.312
  32.000 1073.086
  32.100 1193.212
  32.200 1082.581
  32.300 1027.675
  32.400  735.018
  32.500  750.411
  32.600  798.268
  32.700  733.729
  32.800  754.941
  32.900  606.299
  33.000  815.455
  33.100  624.450
  33.200  781.860
  33.300  711.508
  33.400  644.493
  33.500  573.716
  33.600  628.387
  33.700  759.383
  33.800  720.078
  33.900  601.675
  34.000  803.395
  34.100  686.436
  34.200  656.039
  34.300  825.973
  34.400  797.156
  34.500  979.201
  34.600 1122.485
  34.700 1485.640
  34.800 1675.232
  34.900 1704.135
  35.000 2076.447
  35.100 2775.416
  35.200 2781.617
  35.300 2058.341
  35.400 1372.978
  35.500 1010.907
  35.600  868.473
  35.700  900.209
  35.800  783.817
  35.900  931.704
  36.000  903.781
  36.100  729.730
  36.200  936.015
  36.300  711.131
  36.400  804.433
  36.500 1106.401
  36.600 1135.938
  36.700 1030.137
  36.800 1074.241
  36.900  940.117
  37.000  856.144
  37.100  861.768
  37.200  766.563
  37.300  854.289
  37.400  877.822
  37.500  974.565
  37.600 1030.911
  37.700 1013.451
  37.800 1178.910
  37.900 1165.538
  38.000 1226.008
  38.100  886.041
  38.200  914.274
  38.300  857.327
  38.400  804.323
  38.500  772.567
  38.600  671.403
  38.700  495.107
  38.800  549.329
  38.900  524.370
  39.000  580.317
  39.100  479.215
  39.200  537.128
  39.300  495.988
  39.400  619.927
  39.500  682.930
  39.600  716.834
  39.700  550.270
  39.800  659.283
  39.900  711.954
  40.000  795.982
  40.100  819.537
  40.200  762.773
  40.300  912.346
  40.400  893.424
  40.500  730.265
  40.600  853.197
  40.700  644.323
  40.800  800.662
  40.900  993.953
  41.000  781.952
  41.100  721.962
  41.200  877.084
  41.300  712.087
  41.400  902.802
  41.500  814.878
  41.600  740.091
  41.700  612.867
  41.800  539.647
  41.900  686.473
  42.000  747.056
  42.100  869.363
  42.200  793.701
  42.300  920.552
  42.400  917.779
  42.500 1113.125
  42.600 1134.751
  42.700  913.574
  42.800  770.376
  42.900  638.969
  43.000  733.462
  43.100  501.997
  43.200  610.913
  43.300  443.224
  43.400  584.237
  43.500  637.554
  43.600  501.266
  43.700  621.665
  43.800  498.811
  43.900  577.844
  44.000  684.638