File: xrd_output/random_files/2M1-std-20.TXT
Sample
Comments
Filename	C:\WINDMAX\DATA\USERS\GEO\GEO_ER~1\Pyrenees\BULKMA~1\2M1-std2.raw
Goniometer	Ultima IV In-plane
Attachment	Auto sample changer (10 samples)
ScanningMode	2Theta/Theta
ScanningType	Continuos Scanning
X-Ray	40kV/44mA
DivSlit	2/3deg.
DivH.L.Slit	10mm
SctSlit	2/3deg.
RecSlit	0.3mm
Start	16
Stop	44
Step	0.02
Speed	0.3
Offset	0
  16.000  819.609
  16.100  664.389
  16.200  689.983
  16.300  581.233
  16.400  594.969
  16.500  615.143
  16.600  605.636
  16.700  645.732
  16.800  751.562
  16.900  711.019
  17.000  563.813
  17.100  543.049
  17.200  712.962
  17.300  628.535
  17.400  647.012
  17.500  840.755
  17.600  784.593
  17.700  942.988
  17.800  995.725
  17.900 1344.451
  18.000 1291.789
  18.100 1118.220
  18.200  822.445
  18.300  731.311
  18.400  856.072
  18.500  780.635
  18.600  791.005
  18.700  859.376
  18.800  693.133
  18.900  649.859
  19.000  738.213
  19.100  597.927
  19.200  797.208
  19.300  645.874
  19.400  870.976
  19.500  909.237
  19.600 1026.310
  19.700 1076.948
  19.800 1403.483
  19.900 2246.068
  20.000 2595.754
  20.100 2340.314
  20.200 1621.569
  20.300 1137.122
  20.400 1196.829
  20.500  846.303
  20.600  975.027
  20.700 1074.408
  20.800 1129.121
  20.900 1100.737
  21.000  895.832
  21.100  690.199
  21.200  712.522
  21.300  818.797
  21.400  804.182
  21.500  817.976
  21.600 1126.665
  21.700 1120.544
  21.800 1139.137
  21.900  896.595
  22.000  908.678
  22.100  828.878
  22.200  818.248
  22.300  706.402
  22.400  844.182
  22.500  954.865
  22.600  847.200
  22.700  885.345
  22.800  945.150
  22.900 1313.818
  23.000 1520.756
  23.100 1651.965
  23.200 1304.514
  23.300  972.717
  23.400  922.982
  23.500  954.856
  23.600  972.975
  23.700  947.822
  23.800 1162.790
  23.900 1540.586
  24.000 1461.897
  24.100 1469.271
  24.200 1318.511
  24.300 1223.582
  24.400  970.312
  24.500  844.673
  24.600  884.447
  24.700  726.105
  24.800  935.033
  24.900  909.108
  25.000 1017.347
  25.100 1073.186
  25.200 1178.573
  25.300 1052.438
  25.400 1133.350
  25.500 1458.813
  25.600 1719.339
  25.700 1550.733
  25.800 1319.419
  25.900  910.940
  26.000 1034.733
  26.100  972.057
  26.200  960.575
  26.300  928.238
  26.400 1033.074
  26.500 1239.964
  26.600 1371.400
  26.700 1863.835
  26.800 2330.248
  26.900 2218.466
  27.000 1982.441
  27.100 1479.122
  27.200 1018.248
  27.300  992.976
  27.400  880.314
  27.500 1005.074
  27.600  891.463
  27.700  886.802
  27.800 1201.151
  27.900 1581.862
  28.000 1643.173
  28.100 1516.604
  28.200 1158.047
  28.300  974.167
  28.400  858.449
  28.500  952.795
  28.600  924.770
  28.700  797.587
  28.800  825.608
  28.900  918.631
  29.000  916.646
  29.100  830.053
  29.200  738.278
  29.300  624.944
  29.400  866.944
  29.500  755.340
  29.600  744.954
  29.700  881.054
  29.800 1023.212
  29.900 1449.670
  30.000 1444.670
  30.100 1543.267
  30.200 1025.634
  30.300  943.573
  30.400  853.246
  30.500  662.241
  30.600  756.201
  30.700  642.521
  30.800  834.974
  30.900  681.926
  31.000  921.994
  31.100  870.452
  31.200 1046.110
  31.300 1346.773
  31.400 1523.723
  31.500 1526.678
  31.600 1344.270
  31.700 1294.911
  31.800 1313.179
  31.900 1209.314
  32.000 1114.474
  32.100 1057.540
  32.200 1146.088
  32.300 1195.218
  32.400  916.461
  32.500  737.234
  32.600  860.280
  32.700  580.532
  32.800  676.793
  32.900  828.337
  33.000  830.745
  33.100  566.046
  33.200  769.706
  33.300  750.057
  33.400  661.760
  33.500  545.690
  33.600  535.697
  33.700  707.901
  33.800  575.339
  33.900  725.716
  34.000  840.335
  34.100  732.885
  34.200  663.365
  34.300  798.597
  34.400  863.253
  34.500  907.308
  34.600 1135.469
  34.700 1599.263
  34.800 1727.891
  34.900 1803.860
  35.000 2028.107
  35.100 2597.031
  35.200 2761.506
  35.300 1988.252
  35.400 1482.987
  35.500 1030.060
  35.600  919.577
  35.700  921.463
  35.800  792.097
  35.900  803.368
  36.000  940.487
  36.100  779.821
  36.200  897.917
  36.300  693.664
  36.400  771.836
  36.500 1056.446
  36.600 1099.219
  36.700 1170.336
  36.800  985.328
  36.900  981.422
  37.000  978.236
  37.100  875.128
  37.200  894.139
  37.300  716.721
  37.400  724.584
  37.500  817.473
  37.600  869.137
  37.700 1136.295
  37.800 1202.315
  37.900 1103.602
  38.000 1182.442
  38.100 1040.949
  38.200  944.186
  38.300  897.399
  38.400  644.068
  38.500  784.042
  38.600  654.325
  38.700  641.501
  38.800  655.807
  38.900  673.198
  39.000  476.946
  39.100  577.611
  39.200  504.739
  39.300  520.041
  39.400  577.306
  39.500  669.973
  39.600  715.683
  39.700  719.861
  39.800  643.469
  39.900  618.039
  40.000  684.587
  40.100  642.203
  40.200  940.452
  40.300  980.080
  40.400  763.486
  40.500  679.866
  40.600  858.064
  40.700  640.660
  40.800  753.624
  40.900  778.149
  41.000  963.204
  41.100  852.549
  41.200  810.014
  41.300  729.795
  41.400  721.164
  41.500  675.771
  41.600  719.778
  41.700  604.998
  41.800  767.702
  41.900  824.194
  42.000  654.988
  42.100  815.088
  42.200  873.680
  42.300  857.244
  42.400  933.354
  42.500 1068.263
  42.600  957.299
  42.700 1039.326
  42.800  843.443
  42.900  718.881
  43.000  575.917
  43.100  559.231
  43.200  642.217
  43.300  435.279
  43.400  443.947
  43.500  644.662
  43.600  704.137
  43.700  592.885
  43.800  477.917
  43.900  645.275
  44.000  538.884