File: xrd_output/random_files/2M1-std-3.TXT
Sample
Comments
Filename	C:\WINDMAX\DATA\USERS\GEO\GEO_ER~1\Pyrenees\BULKMA~1\2M1-std2.raw
Goniometer	Ultima IV In-plane
Attachment	Auto sample changer (10 samples)
ScanningMode	2Theta/Theta
ScanningType	Continuos Scanning
X-Ray	40kV/44mA
DivSlit	2/3deg.
DivH.L.Slit	10mm
SctSlit	2/3deg.
RecSlit	0.3mm
Start	16
Stop	44
Step	0.02
Speed	0.3
Offset	0
  16.000  713.931
  16.100  751.658
  16.200  770.232
  16.300  640.232
  16.400  532.084
  16.500  559.898
  16.600  691.211
  16.700  593.822
  16.800  769.002
  16.900  620.950
  17.000  610.463
  17.100  583.946
  17.200  761.584
  17.300  756.622
  17.400  555.008
  17.500  841.073
  17.600  661.332
  17.700  972.722
  17.800 1167.224
  17.900 1280.303
  18.000 1329.732
  18.100 1292.367
  18.200  836.494
  18.300  740.099
  18.400  693.846
  18.500  840.428
  18.600  690.833
  18.700  637.092
  18.800  636.453
  18.900  776.574
  19.000  781.996
  19.100  803.939
  19.200  725.332
  19.300  699.426
  19.400  694.765
  19.500  706.872
  19.600  991.452
  19.700 1154.749
  19.800 1488.779
  19.900 2156.890
  20.000 2603.023
  20.100 2348.926
  20.200 1445.487
  20.300 1119.408
  20.400 1059.189
  20.500  907.269
  20.600  895.853
  20.700 1114.047
  20.800 1302.106
  20.900 1083.092
  21.000  798.759
  21.100  770.822
  21.200  915.216
  21.300  718.044
  21.400  755.222
  21.500  924.827
  21.600 1142.558
  21.700 1077.143
  21.800  976.313
  21.900  935.326
  22.000  835.400
  22.100  678.082
  22.200  737.642
  22.300  810.374
  22.400  798.161
  22.500 1001.316
  22.600  913.999
  22.700  906.004
  22.800 1125.909
  22.900 1176.222
  23.000 1476.554
  23.100 1546.858
  23.200 1362.645
  23.300  976.811
  23.400  882.981
  23.500  789.061
  23.600 1003.879
  23.700 1124.559
  23.800 1229.346
  23.900 1465.756
  24.000 1522.367
  24.100 1550.744
  24.200 1202.673
  24.300 1213.165
  24.400  971.706
  24.500  890.870
  24.600  906.289
  24.700  726.691
  24.800  841.215
  24.900  853.070
  25.000  841.711
  25.100 1081.141
  25.200  998.582
  25.300 1245.676
  25.400 1166.508
  25.500 1307.161
  25.600 1603.970
  25.700 1723.267
  25.800 1176.731
  25.900 1072.580
  26.000 1003.742
  26.100  954.345
  26.200  921.536
  26.300  880.930
  26.400  902.409
  26.500 1147.664
  26.600 1301.449
  26.700 1709.720
  26.800 2278.192
  26.900 2338.416
  27.000 1816.083
  27.100 1472.094
  27.200 1120.408
  27.300 1092.863
  27.400  951.902
  27.500  830.034
  27.600  841.311
  27.700  888.671
  27.800 1040.326
  27.900 1516.709
  28.000 1788.182
  28.100 1643.467
  28.200 1217.196
  28.300 1057.622
  28.400 1029.223
  28.500  802.328
  28.600  989.593
  28.700  909.060
  28.800  890.706
  28.900  786.306
  29.000  728.040
  29.100  900.686
  29.200  868.647
  29.300  616.435
  29.400  793.964
  29.500  626.669
  29.600  839.538
  29.700  951.939
  29.800 1088.698
  29.900 1366.083
  30.000 1596.638
  30.100 1548.401
  30.200 1208.098
  30.300 1027.657
  30.400  874.932
  30.500  838.370
  30.600  735.002
  30.700  723.372
  30.800  741.810
  30.900  671.252
  31.000  881.323
  31.100  955.012
  31.200 1142.913
  31.300 1465.939
  31.400 1660.981
  31.500 1593.581
  31.600 1440.388
  31.700 1302.508
  31.800 1375.386
  31.900 1292.305
  32.000 1046.559
  32.100 1229.148
  32.200 1275.185
  32.300 1081.857
  32.400  747.615
  32.500  645.413
  32.600  790.225
  32.700  738.693
  32.800  643.662
  32.900  735.509
  33.000  820.755
  33.100  759.968
  33.200  793.537
  33.300  528.497
  33.400  777.904
  33.500  681.099
  33.600  694.521
  33.700  557.620
  33.800  737.935
  33.900  676.399
  34.000  739.155
  34.100  740.990
  34.200  864.478
  34.300  819.884
  34.400  801.645
  34.500  868.168
  34.600 1220.857
  34.700 1598.643
  34.800 1577.483
  34.900 1797.559
  35.000 2009.700
  35.100 2692.402
  35.200 2724.798
  35.300 2058.867
  35.400 1514.072
  35.500 1108.208
  35.600  767.846
  35.700  722.916
  35.800  778.715
  35.900  764.523
  36.000  753.552
  36.100  855.729
  36.200  953.030
  36.300  866.226
  36.400  761.135
  36.500  954.225
  36.600 1059.009
  36.700 1008.935
  36.800 1096.261
  36.900  990.734
  37.000  869.297
  37.100  751.931
  37.200  650.076
  37.300  891.320
  37.400  939.234
  37.500  752.242
  37.600  926.427
  37.700 1160.372
  37.800 1122.317
  37.900 1124.246
  38.000 1059.885
  38.100 1056.210
  38.200  888.626
  38.300  771.149
  38.400  738.613
  38.500  588.950
  38.600  741.764
  38.700  557.036
  38.800  690.064
  38.900  490.932
  39.000  565.645
  39.100  620.250
  39.200  697.329
  39.300  606.774
  39.400  608.937
  39.500  519.983
  39.600  702.088
  39.700  660.205
  39.800  690.173
  39.900  611.373
  40.000  587.882
  40.100  807.543
  40.200  874.269
  40.300  995.539
  40.400  839.137
  40.500  761.621
  40.600  776.174
  40.700  812.589
  40.800  823.090
  40.900  845.369
  41.000  754.631
  41.100  781.554
  41.200  912.551
  41.300  722.329
  41.400  676.338
  41.500  871.465
  41.600  808.984
  41.700  749.975
  41.800  777.740
  41.900  715.205
  42.000  781.557
  42.100  860.293
  42.200  935.253
  42.300  832.042
  42.400 1088.267
  42.500 1086.664
  42.600 1162.936
  42.700  994.271
  42.800  711.873
  42.900  694.529
  43.000  630.661
  43.100  583.690
  43.200  515.099
  43.300  449.146
  43.400  589.752
  43.500  484.740
  43.600  522.800
  43.700  638.890
  43.800  550.588
  43.900  727.158
  44.000  626.114