File: xrd_output/random_files/2M1-std-19.TXT
Sample
Comments
Filename	C:\WINDMAX\DATA\USERS\GEO\GEO_ER~1\Pyrenees\BULKMA~1\2M1-std2.raw
Goniometer	Ultima IV In-plane
Attachment	Auto sample changer (10 samples)
ScanningMode	2Theta/Theta
ScanningType	Continuos Scanning
X-Ray	40kV/44mA
DivSlit	2/3deg.
DivH.L.Slit	10mm
SctSlit	2/3deg.
RecSlit	0.3mm
Start	16
Stop	44
Step	0.02
Speed	0.3
Offset	0
  16.000  584.490
  16.100  830.956
  16.200  786.089
  16.300  528.014
  16.400  709.998
  16.500  551.753
  16.600  522.765
  16.700  647.312
  16.800  685.224
  16.900  689.585
  17.000  565.867
  17.100  525.091
  17.200  531.744
  17.300  532.888
  17.400  593.258
  17.500  772.031
  17.600  709.593
  17.700  897.879
  17.800 1138.183
  17.900 1351.229
  18.000 1401.452
  18.100 1065.811
  18.200  910.911
  18.300  853.016
  18.400  735.214
  18.500  797.711
  18.600  743.759
  18.700  652.227
  18.800  877.211
  18.900  725.407
  19.000  656.326
  19.100  777.398
  19.200  835.903
  19.300  842.746
  19.400  644.964
  19.500  713.929
  19.600 1039.506
  19.700 1090.085
  19.800 1480.765
  19.900 2284.436
  20.000 2604.946
  20.100 2247.557
  20.200 1457.577
  20.300 1253.135
  20.400 1007.828
  20.500 1073.561
  20.600 1060.202
  20.700 1098.324
  20.800 1289.698
  20.900 1027.660
  21.000  841.857
  21.100  879.084
  21.200  804.938
  21.300  703.925
  21.400  765.515
  21.500  854.335
  21.600 1101.670
  21.700  988.460
  21.800  928.473
  21.900  818.353
  22.000  842.399
  22.100  794.559
  22.200  671.823
  22.300  858.949
  22.400  737.932
  22.500  808.314
  22.600  892.758
  22.700  813.969
  22.800 1009.938
  22.900 1205.821
  23.000 1560.804
  23.100 1489.075
  23.200 1439.127
  23.300  921.570
  23.400  768.138
  23.500  847.398
  23.600  920.286
  23.700  887.579
  23.800 1072.030
  23.900 1343.612
  24.000 1615.319
  24.100 1459.152
  24.200 1215.186
  24.300 1073.804
  24.400  992.829
  24.500  795.007
  24.600  779.790
  24.700  836.211
  24.800  755.668
  24.900  812.746
  25.000  827.513
  25.100  968.495
  25.200  996.383
  25.300 1105.910
  25.400 1114.098
  25.500 1548.706
  25.600 1771.298
  25.700 1670.893
  25.800 1422.357
  25.900 1049.001
  26.000  984.632
  26.100  794.758
  26.200  868.829
  26.300  840.305
  26.400  873.210
  26.500 1049.426
  26.600 1382.693
  26.700 1874.702
  26.800 2148.629
  26.900 2439.717
  27.000 1831.422
  27.100 1362.221
  27.200  961.664
  27.300 1059.964
  27.400  994.848
  27.500  911.472
  27.600  902.796
  27.700  958.570
  27.800 1076.243
  27.900 1488.584
  28.000 1643.959
  28.100 1657.377
  28.200 1278.036
  28.300 1168.123
  28.400  895.087
  28.500  794.037
  28.600  753.487
  28.700  824.378
  28.800  928.851
  28.900  763.273
  29.000  827.118
  29.100  727.414
  29.200  659.631
  29.300  763.096
  29.400  843.275
  29.500  857.695
  29.600  791.239
  29.700  951.934
  29.800 1093.449
  29.900 1342.440
  30.000 1443.679
  30.100 1491.081
  30.200 1140.983
  30.300  971.943
  30.400  895.519
  30.500  732.021
  30.600  712.756
  30.700  642.179
  30.800  779.565
  30.900  735.390
  31.000  704.817
  31.100 1004.501
  31.200 1212.987
  31.300 1536.818
  31.400 1501.968
  31.500 1513.433
  31.600 1454.286
  31.700 1351.079
  31.800 1264.166
  31.900 1188.367
  32.000 1041.827
  32.100 1143.515
  32.200 1040.199
  32.300  983.907
  32.400  827.892
  32.500  869.603
  32.600  791.879
  32.700  770.541
  32.800  785.249
  32.900  757.696
  33.000  730.734
  33.100  675.671
  33.200  807.114
  33.300  659.406
  33.400  660.211
  33.500  586.043
  33.600  710.040
  33.700  719.288
  33.800  653.509
  33.900  647.966
  34.000  813.567
  34.100  735.956
  34.200  777.758
  34.300  824.422
  34.400  896.799
  34.500  923.408
  34.600 1098.193
  34.700 1589.986
  34.800 1781.094
  34.900 1751.221
  35.000 1988.292
  35.100 2539.797
  35.200 2826.736
  35.300 2159.427
  35.400 1460.621
  35.500  887.297
  35.600  958.536
  35.700  703.545
  35.800  684.031
  35.900  771.363
  36.000  984.701
  36.100  770.392
  36.200  852.401
  36.300  826.970
  36.400  764.154
  36.500  965.551
  36.600 1158.713
  36.700  939.783
  36.800  947.788
  36.900 1020.876
  37.000  934.620
  37.100  700.025
  37.200  664.320
  37.300  636.194
  37.400  928.257
  37.500  939.545
  37.600  843.448
  37.700 1034.996
  37.800 1179.358
  37.900 1210.490
  38.000 1173.806
  38.100  994.048
  38.200  987.992
  38.300  727.835
  38.400  819.151
  38.500  828.754
  38.600  541.779
  38.700  717.368
  38.800  710.429
  38.900  623.742
  39.000  535.593
  39.100  608.836
  39.200  570.604
  39.300  737.010
  39.400  670.944
  39.500  599.639
  39.600  734.293
  39.700  705.059
  39.800  747.727
  39.900  697.070
  40.000  801.113
  40.100  837.548
  40.200  813.320
  40.300  972.374
  40.400  796.470
  40.500  681.830
  40.600  747.947
  40.700  795.857
  40.800  796.952
  40.900  884.012
  41.000  875.164
  41.100  932.358
  41.200  814.865
  41.300  732.969
  41.400  750.940
  41.500  847.929
  41.600  691.456
  41.700  617.933
  41.800  735.973
  41.900  801.810
  42.000  786.296
  42.100  885.485
  42.200 1049.248
  42.300  998.832
  42.400 1118.680
  42.500 1174.151
  42.600 1014.109
  42.700  921.587
  42.800  660.642
  42.900  657.509
  43.000  754.788
  43.100  585.369
  43.200  535.376
  43.300  465.478
  43.400  583.212
  43.500  457.754
  43.600  467.640
  43.700  619.836
  43.800  567.052
  43.900  591.414
  44.000  700.834