File: xrd_output/random_files/2M1-std-33.TXT
Sample
Comments
Filename	C:\WINDMAX\DATA\USERS\GEO\GEO_ER~1\Pyrenees\BULKMA~1\2M1-std2.raw
Goniometer	Ultima IV In-plane
Attachment	Auto sample changer (10 samples)
ScanningMode	2Theta/Theta
ScanningType	Continuos Scanning
X-Ray	40kV/44mA
DivSlit	2/3deg.
DivH.L.Slit	10mm
SctSlit	2/3deg.
RecSlit	0.3mm
Start	16
Stop	44
Step	0.02
Speed	0.3
Offset	0
  16.000  590.060
  16.100  621.862
  16.200  583.692
  16.300  683.702
  16.400  636.133
  16.500  600.521
  16.600  555.890
  16.700  583.944
  16.800  550.593
  16.900  739.203
  17.000  767.229
  17.100  702.438
  17.200  609.187
  17.300  682.368
  17.400  784.504
  17.500  689.087
  17.600  698.059
  17.700  974.390
  17.800  995.225
  17.900 1402.413
  18.000 1374.793
  18.100 1173.478
  18.200  890.670
  18.300  745.273
  18.400  764.290
  18.500  695.869
  18.600  676.751
  18.700  785.389
  18.800  788.511
  18.900  646.426
  19.000  559.104
  19.100  582.544
  19.200  631.515
  19.300  818.089
  19.400  713.875
  19.500  808.354
  19.600 1057.051
  19.700 1094.688
  19.800 1633.452
  19.900 2160.075
  20.000 2601.942
  20.100 2301.629
  20.200 1591.493
  20.300 1289.466
  20.400 1146.193
  20.500  891.541
  20.600  958.304
  20.700 1118.113
  20.800 1220.542
  20.900 1128.113
  21.000  872.648
  21.100  681.639
  21.200  827.781
  21.300  844.083
  21.400  733.727
  21.500  874.196
  21.600 1092.536
  21.700 1079.365
  21.800 1163.738
  21.900 1059.417
  22.000  908.208
  22.100  927.409
  22.200  691.597
  22.300  893.519
  22.400  755.926
  22.500  871.008
  22.600  817.634
  22.700  860.235
  22.800 1139.452
  22.900 1157.244
  23.000 1584.699
  23.100 1640.048
  23.200 1375.649
  23.300 1112.177
  23.400  998.949
  23.500  823.536
  23.600  952.814
  23.700  944.731
  23.800 1068.228
  23.900 1431.484
  24.000 1628.012
  24.100 1390.768
  24.200 1430.464
  24.300 1069.117
  24.400  901.453
  24.500  715.720
  24.600  688.856
  24.700  712.462
  24.800  897.987
  24.900  851.074
  25.000  905.376
  25.100 1015.866
  25.200 1110.133
  25.300 1032.182
  25.400 1299.276
  25.500 1527.840
  25.600 1714.478
  25.700 1579.426
  25.800 1359.822
  25.900 1141.483
  26.000  961.652
  26.100  827.984
  26.200  913.841
  26.300  970.131
  26.400 1001.040
  26.500 1048.089
  26.600 1510.528
  26.700 1911.737
  26.800 2225.362
  26.900 2436.650
  27.000 1752.979
  27.100 1317.669
  27.200 1202.649
  27.300  977.234
  27.400  896.076
  27.500  939.921
  27.600  923.484
  27.700 1067.038
  27.800 1275.822
  27.900 1590.847
  28.000 1699.683
  28.100 1554.890
  28.200 1187.460
  28.300  977.411
  28.400  971.192
  28.500  989.819
  28.600  923.993
  28.700  996.525
  28.800 1023.196
  28.900  774.905
  29.000  900.748
  29.100  848.446
  29.200  644.938
  29.300  677.931
  29.400  851.429
  29.500  696.239
  29.600  732.315
  29.700 1022.798
  29.800 1124.325
  29.900 1451.852
  30.000 1617.201
  30.100 1464.344
  30.200 1159.285
  30.300  929.288
  30.400  896.133
  30.500  822.041
  30.600  645.919
  30.700  714.605
  30.800  751.938
  30.900  860.057
  31.000  904.048
  31.100  928.983
  31.200 1260.037
  31.300 1434.926
  31.400 1599.117
  31.500 1557.817
  31.600 1603.324
  31.700 1373.120
  31.800 1231.687
  31.900 1147.782
  32.000  933.412
  32.100 1225.005
  32.200 1136.223
  32.300  989.875
  32.400  943.724
  32.500  837.429
  32.600  789.539
  32.700  708.675
  32.800  746.556
  32.900  735.808
  33.000  836.334
  33.100  685.783
  33.200  584.961
  33.300  720.043
  33.400  663.704
  33.500  556.802
  33.600  566.871
  33.700  699.968
  33.800  664.777
  33.900  734.869
  34.000  733.841
  34.100  817.125
  34.200  712.424
  34.300  820.631
  34.400  711.617
  34.500  798.274
  34.600 1139.177
  34.700 1621.972
  34.800 1703.708
  34.900 1816.275
  35.000 2031.802
  35.100 2546.201
  35.200 2935.546
  35.300 2160.302
  35.400 1353.118
  35.500 1018.376
  35.600  991.219
  35.700  732.119
  35.800  667.546
  35.900  960.982
  36.000  726.094
  36.100  787.465
  36.200  903.971
  36.300  775.254
  36.400  891.258
  36.500  860.450
  36.600 1027.068
  36.700 1122.666
  36.800 1034.461
  36.900  840.333
  37.000  809.885
  37.100  715.029
  37.200  725.435
  37.300  887.062
  37.400  802.176
  37.500  886.851
  37.600  916.694
  37.700 1150.713
  37.800 1208.819
  37.900 1308.408
  38.000 1175.670
  38.100 1036.745
  38.200  944.717
  38.300  703.176
  38.400  743.474
  38.500  730.318
  38.600  728.670
  38.700  580.319
  38.800  653.342
  38.900  628.596
  39.000  510.462
  39.100  577.561
  39.200  539.290
  39.300  682.141
  39.400  716.321
  39.500  655.443
  39.600  630.464
  39.700  646.890
  39.800  548.343
  39.900  551.302
  40.000  566.711
  40.100  823.669
  40.200  871.100
  40.300  801.052
  40.400  740.228
  40.500  910.450
  40.600  738.476
  40.700  832.670
  40.800  897.329
  40.900  846.618
  41.000  731.259
  41.100  785.442
  41.200  744.529
  41.300  804.091
  41.400  851.627
  41.500  706.119
  41.600  771.706
  41.700  809.704
  41.800  698.626
  41.900  640.844
  42.000  844.287
  42.100  841.739
  42.200  794.988
  42.300 1006.487
  42.400  880.385
  42.500  988.264
  42.600 1017.632
  42.700  912.506
  42.800  863.109
  42.900  609.309
  43.000  677.570
  43.100  519.187
  43.200  520.030
  43.300  551.438
  43.400  539.664
  43.500  630.688
  43.600  708.734
  43.700  621.236
  43.800  625.713
  43.900  697.550
  44.000  610.319