File: xrd_output/random_files/2M1-std-4.TXT
Sample
Comments
Filename	C:\WINDMAX\DATA\USERS\GEO\GEO_ER~1\Pyrenees\BULKMA~1\2M1-std2.raw
Goniometer	Ultima IV In-plane
Attachment	Auto sample changer (10 samples)
ScanningMode	2Theta/Theta
ScanningType	Continuos Scanning
X-Ray	40kV/44mA
DivSlit	2/3deg.
DivH.L.Slit	10mm
SctSlit	2/3deg.
RecSlit	0.3mm
Start	16
Stop	44
Step	0.02
Speed	0.3
Offset	0
  16.000  606.179
  16.100  604.623
  16.200  695.928
  16.300  538.152
  16.400  730.341
  16.500  604.657
  16.600  527.057
  16.700  576.413
  16.800  738.351
  16.900  546.691
  17.000  641.137
  17.100  690.928
  17.200  660.444
  17.300  550.074
  17.400  708.099
  17.500  830.592
  17.600  907.880
  17.700 1012.928
  17.800 1102.950
  17.900 1361.739
  18.000 1341.150
  18.100 1237.077
  18.200 1045.541
  18.300  853.844
  18.400  636.063
  18.500  773.129
  18.600  824.161
  18.700  787.618
  18.800  634.792
  18.900  755.304
  19.000  591.013
  19.100  618.567
  19.200  649.441
  19.300  697.294
  19.400  777.296
  19.500  837.396
  19.600  995.224
  19.700 1273.510
  19.800 1565.849
  19.900 2177.765
  20.000 2752.841
  20.100 2345.687
  20.200 1543.902
  20.300 1267.545
  20.400 1010.551
  20.500 1036.892
  20.600  875.273
  20.700 1087.733
  20.800 1345.258
  20.900 1164.812
  21.000  870.548
  21.100  706.232
  21.200  742.916
  21.300  793.896
  21.400  939.988
  21.500  981.957
  21.600 1109.301
  21.700 1006.862
  21.800  971.739
  21.900  814.988
  22.000  954.624
  22.100  892.605
  22.200  914.647
  22.300  896.102
  22.400  868.047
  22.500 1036.204
  22.600  870.073
  22.700 1049.933
  22.800 1002.163
  22.900 1153.119
  23.000 1582.443
  23.100 1624.552
  23.200 1254.556
  23.300 1088.685
  23.400  992.117
  23.500  985.766
  23.600  877.707
  23.700  887.743
  23.800 1254.317
  23.900 1453.611
  24.000 1683.401
  24.100 1532.213
  24.200 1268.338
  24.300  982.629
  24.400  870.041
  24.500  796.711
  24.600  740.432
  24.700  778.517
  24.800  741.223
  24.900  971.281
  25.000  827.721
  25.100 1118.356
  25.200 1173.459
  25.300 1239.470
  25.400 1298.182
  25.500 1429.690
  25.600 1681.573
  25.700 1546.389
  25.800 1336.758
  25.900 1023.453
  26.000  903.002
  26.100  764.934
  26.200  832.360
  26.300  885.903
  26.400 1024.868
  26.500 1245.249
  26.600 1408.574
  26.700 1860.355
  26.800 2269.344
  26.900 2250.156
  27.000 1949.484
  27.100 1393.503
  27.200 1121.515
  27.300  927.456
  27.400  897.099
  27.500 1024.682
  27.600  989.109
  27.700  943.870
  27.800 1243.892
  27.900 1515.817
  28.000 1617.486
  28.100 1456.886
  28.200 1128.852
  28.300  984.672
  28.400  871.162
  28.500  949.741
  28.600  827.934
  28.700 1052.848
  28.800 1026.650
  28.900 1012.223
  29.000  776.264
  29.100  922.467
  29.200  770.241
  29.300  691.431
  29.400  697.348
  29.500  609.760
  29.600  807.843
  29.700  931.085
  29.800  987.927
  29.900 1418.530
  30.000 1509.628
  30.100 1485.933
  30.200 1027.643
  30.300  862.096
  30.400  823.492
  30.500  719.264
  30.600  798.077
  30.700  636.102
  30.800  840.744
  30.900  694.969
  31.000  756.327
  31.100  985.185
  31.200 1266.614
  31.300 1485.758
  31.400 1681.218
  31.500 1575.662
  31.600 1593.156
  31.700 1529.023
  31.800 1338.518
  31.900 1086.391
  32.000 1113.336
  32.100 1127.592
  32.200 1176.358
  32.300 1082.825
  32.400  761.465
  32.500  821.643
  32.600  619.278
  32.700  772.775
  32.800  623.049
  32.900  636.937
  33.000  797.149
  33.100  749.175
  33.200  628.493
  33.300  542.731
  33.400  580.285
  33.500  722.991
  33.600  721.305
  33.700  542.710
  33.800  593.947
  33.900  587.876
  34.000  655.974
  34.100  666.437
  34.200  839.319
  34.300  819.654
  34.400  881.428
  34.500  774.036
  34.600 1039.440
  34.700 1459.467
  34.800 1809.215
  34.900 1715.818
  35.000 2153.299
  35.100 2642.856
  35.200 2857.843
  35.300 1975.790
  35.400 1307.062
  35.500  972.431
  35.600  831.983
  35.700  915.928
  35.800  879.449
  35.900  727.319
  36.000  849.017
  36.100  793.320
  36.200  951.055
  36.300  926.591
  36.400  998.486
  36.500  928.502
  36.600 1000.751
  36.700 1057.164
  36.800 1087.828
  36.900  872.630
  37.000  879.967
  37.100  680.086
  37.200  643.476
  37.300  638.982
  37.400  787.382
  37.500  979.978
  37.600  996.101
  37.700 1125.364
  37.800 1234.285
  37.900 1247.259
  38.000 1278.467
  38.100 1017.907
  38.200  963.941
  38.300  740.555
  38.400  850.809
  38.500  695.705
  38.600  628.549
  38.700  617.355
  38.800  717.576
  38.900  476.524
  39.000  559.407
  39.100  541.148
  39.200  651.011
  39.300  477.159
  39.400  511.399
  39.500  628.268
  39.600  699.385
  39.700  553.397
  39.800  563.167
  39.900  726.341
  40.000  654.408
  40.100  753.797
  40.200  976.634
  40.300  980.232
  40.400  777.519
  40.500  902.339
  40.600  787.297
  40.700  758.607
  40.800  893.818
  40.900  848.406
  41.000  956.828
  41.100  798.887
  41.200  725.764
  41.300  640.632
  41.400  667.345
  41.500  774.624
  41.600  669.310
  41.700  747.243
  41.800  740.155
  41.900  767.538
  42.000  848.692
  42.100  911.967
  42.200 1051.082
  42.300  998.563
  42.400 1012.533
  42.500 1114.341
  42.600 1157.522
  42.700 1031.654
  42.800  873.536
  42.900  673.057
  43.000  578.479
  43.100  491.584
  43.200  547.709
  43.300  555.636
  43.400  589.501
  43.500  460.600
  43.600  660.879
  43.700  515.136
  43.800  635.095
  43.900  705.676
  44.000  514.910