File: xrd_output/random_files/2M1-std-35.TXT
Sample
Comments
Filename	C:\WINDMAX\DATA\USERS\GEO\GEO_ER~1\Pyrenees\BULKMA~1\2M1-std2.raw
Goniometer	Ultima IV In-plane
Attachment	Auto sample changer (10 samples)
ScanningMode	2Theta/Theta
ScanningType	Continuos Scanning
X-Ray	40kV/44mA
DivSlit	2/3deg.
DivH.L.Slit	10mm
SctSlit	2/3deg.
RecSlit	0.3mm
Start	16
Stop	44
Step	0.02
Speed	0.3
Offset	0
  16.000  789.299
  16.100  835.922
  16.200  825.649
  16.300  585.514
  16.400  677.456
  16.500  767.520
  16.600  575.235
  16.700  560.519
  16.800  689.081
  16.900  551.763
  17.000  524.432
  17.100  596.591
  17.200  640.443
  17.300  605.480
  17.400  800.065
  17.500  644.149
  17.600  775.162
  17.700  808.224
  17.800 1057.435
  17.900 1426.878
  18.000 1327.841
  18.100 1042.614
  18.200  979.779
  18.300  779.488
  18.400  853.286
  18.500  633.267
  18.600  695.330
  18.700  683.795
  18.800  662.979
  18.900  832.193
  19.000  593.120
  19.100  712.436
  19.200  745.101
  19.300  730.926
  19.400  862.207
  19.500  672.683
  19.600  917.792
  19.700 1284.237
  19.800 1636.122
  19.900 2172.042
  20.000 2750.918
  20.100 2437.266
  20.200 1545.119
  20.300 1049.377
  20.400 1160.976
  20.500  871.074
  20.600  949.874
  20.700 1143.580
  20.800 1205.763
  20.900  967.968
  21.000 1008.951
  21.100  887.166
  21.200  764.283
  21.300  790.407
  21.400  753.906
  21.500  971.451
  21.600 1031.870
  21.700 1200.126
  21.800 1086.949
  21.900  923.560
  22.000  810.236
  22.100  799.206
  22.200  874.826
  22.300  812.783
  22.400  836.929
  22.500  825.330
  22.600  930.572
  22.700  997.084
  22.800 1146.335
  22.900 1311.513
  23.000 1495.232
  23.100 1635.289
  23.200 1415.041
  23.300 1151.215
  23.400  818.491
  23.500  873.126
  23.600  941.533
  23.700  881.537
  23.800 1132.662
  23.900 1344.205
  24.000 1488.588
  24.100 1478.714
  24.200 1273.816
  24.300 1122.341
  24.400  873.486
  24.500  791.235
  24.600  925.260
  24.700  838.042
  24.800  746.408
  24.900  790.816
  25.000  863.460
  25.100 1078.749
  25.200 1192.109
  25.300 1081.469
  25.400 1235.409
  25.500 1409.450
  25.600 1751.839
  25.700 1582.771
  25.800 1168.509
  25.900 1111.211
  26.000  884.188
  26.100 1004.425
  26.200  898.693
  26.300  988.665
  26.400  952.866
  26.500 1063.399
  26.600 1320.176
  26.700 1781.028
  26.800 2351.327
  26.900 2447.832
  27.000 1953.528
  27.100 1323.339
  27.200 1082.590
  27.300 1102.915
  27.400  985.931
  27.500  976.168
  27.600 1075.380
  27.700  938.866
  27.800 1219.743
  27.900 1344.308
  28.000 1796.964
  28.100 1599.157
  28.200 1129.178
  28.300  938.437
  28.400  965.642
  28.500  893.350
  28.600  975.649
  28.700  969.952
  28.800  856.897
  28.900  815.199
  29.000  789.173
  29.100  851.771
  29.200  805.227
  29.300  799.488
  29.400  753.837
  29.500  647.969
  29.600  774.958
  29.700  865.078
  29.800  984.663
  29.900 1317.741
  30.000 1619.887
  30.100 1377.670
  30.200 1085.886
  30.300  828.663
  30.400  842.392
  30.500  725.293
  30.600  753.004
  30.700  602.216
  30.800  693.674
  30.900  750.889
  31.000  781.262
  31.100 1044.799
  31.200 1271.749
  31.300 1478.483
  31.400 1655.029
  31.500 1389.096
  31.600 1386.667
  31.700 1380.693
  31.800 1338.603
  31.900 1292.887
  32.000 1103.168
  32.100 1104.428
  32.200 1040.028
  32.300 1082.280
  32.400  901.010
  32.500  817.838
  32.600  718.044
  32.700  669.388
  32.800  690.035
  32.900  787.112
  33.000  849.734
  33.100  764.827
  33.200  662.367
  33.300  617.608
  33.400  767.048
  33.500  629.468
  33.600  701.963
  33.700  630.743
  33.800  617.651
  33.900  658.842
  34.000  640.552
  34.100  806.778
  34.200  650.146
  34.300  715.798
  34.400  744.020
  34.500 1010.652
  34.600 1074.680
  34.700 1454.036
  34.800 1706.019
  34.900 1712.184
  35.000 2194.251
  35.100 2568.335
  35.200 2769.270
  35.300 2216.795
  35.400 1443.916
  35.500 1041.167
  35.600  874.310
  35.700  702.230
  35.800  665.645
  35.900  745.670
  36.000  880.580
  36.100  737.296
  36.200  751.507
  36.300  821.016
  36.400  944.995
  36.500 1002.498
  36.600 1165.949
  36.700 1171.936
  36.800  962.239
  36.900 1088.925
  37.000 1029.020
  37.100  869.483
  37.200  708.754
  37.300  732.900
  37.400  822.319
  37.500  750.959
  37.600  837.261
  37.700 1067.016
  37.800 1029.028
  37.900 1178.697
  38.000 1071.171
  38.100  906.531
  38.200  991.058
  38.300  806.749
  38.400  795.601
  38.500  629.574
  38.600  517.230
  38.700  574.144
  38.800  611.816
  38.900  621.959
  39.000  570.069
  39.100  660.335
  39.200  727.597
  39.300  595.291
  39.400  656.033
  39.500  585.475
  39.600  664.878
  39.700  599.988
  39.800  532.108
  39.900  716.543
  40.000  629.672
  40.100  837.931
  40.200  783.141
  40.300  816.940
  40.400  887.848
  40.500  708.554
  40.600  720.310
  40.700  702.630
  40.800  955.488
  40.900  835.070
  41.000  799.587
  41.100  960.614
  41.200  889.136
  41.300  708.018
  41.400  766.525
  41.500  866.061
  41.600  741.532
  41.700  734.888
  41.800  585.936
  41.900  789.227
  42.000  895.222
  42.100  878.976
  42.200 1013.688
  42.300  829.159
  42.400  995.400
  42.500  986.531
  42.600 1130.453
  42.700  934.594
  42.800  659.492
  42.900  737.879
  43.000  613.501
  43.100  458.099
  43.200  584.265
  43.300  436.907
  43.400  496.310
  43.500  502.082
  43.600  480.216
  43.700  525.706
  43.800  587.126
  43.900  632.197
  44.000  645.267