File: xrd_output/random_files/2M1-std-5.TXT
Sample
Comments
Filename	C:\WINDMAX\DATA\USERS\GEO\GEO_ER~1\Pyrenees\BULKMA~1\2M1-std2.raw
Goniometer	Ultima IV In-plane
Attachment	Auto sample changer (10 samples)
ScanningMode	2Theta/Theta
ScanningType	Continuos Scanning
X-Ray	40kV/44mA
DivSlit	2/3deg.
DivH.L.Slit	10mm
SctSlit	2/3deg.
RecSlit	0.3mm
Start	16
Stop	44
Step	0.02
Speed	0.3
Offset	0
  16.000  716.851
  16.100  635.270
  16.200  788.928
  16.300  684.251
  16.400  762.259
  16.500  589.484
  16.600  726.243
  16.700  611.431
  16.800  609.196
  16.900  603.610
  17.000  677.600
  17.100  651.536
  17.200  693.349
  17.300  781.021
  17.400  656.465
  17.500  767.127
  17.600  673.714
  17.700  905.773
  17.800 1132.796
  17.900 1324.344
  18.000 1204.506
  18.100 1107.975
  18.200  880.302
  18.300  877.198
  18.400  707.086
  18.500  617.627
  18.600  736.051
  18.700  805.135
  18.800  642.854
  18.900  815.579
  19.000  590.497
  19.100  574.230
  19.200  824.460
  19.300  891.130
  19.400  693.952
  19.500  866.753
  19.600 1008.279
  19.700 1033.201
  19.800 1529.677
  19.900 2100.379
  20.000 2724.544
  20.100 2438.172
  20.200 1463.640
  20.300 1101.863
  20.400 1007.921
  20.500  941.516
  20.600  906.449
  20.700  990.744
  20.800 1184.971
  20.900 1079.717
  21.000  817.229
  21.100  820.975
  21.200  771.331
  21.300  756.527
  21.400  734.898
  21.500  968.725
  21.600  995.014
  21.700 1108.233
  21.800 1060.553
  21.900  843.849
  22.000  976.378
  22.100  825.629
  22.200  671.017
  22.300  701.225
  22.400  824.241
  22.500  823.400
  22.600  911.371
  22.700  808.318
  22.800  921.606
  22.900 1292.401
  23.000 1463.085
  23.100 1565.981
  23.200 1438.553
  23.300  919.062
  23.400  806.222
  23.500  949.955
  23.600  813.214
  23.700  936.804
  23.800 1094.927
  23.900 1361.250
  24.000 1600.906
  24.100 1573.214
  24.200 1328.220
  24.300 1024.397
  24.400 1017.052
  24.500  849.766
  24.600  835.376
  24.700  920.343
  24.800  743.059
  24.900  963.133
  25.000  976.171
  25.100 1139.485
  25.200 1008.033
  25.300 1123.170
  25.400 1108.410
  25.500 1537.678
  25.600 1564.806
  25.700 1775.595
  25.800 1271.768
  25.900 1004.021
  26.000  792.154
  26.100  877.715
  26.200  966.543
  26.300  943.718
  26.400 1029.565
  26.500 1027.001
  26.600 1302.264
  26.700 1785.200
  26.800 2297.976
  26.900 2446.764
  27.000 1964.700
  27.100 1354.237
  27.200 1170.310
  27.300 1073.785
  27.400  897.733
  27.500  895.245
  27.600 1081.144
  27.700 1108.392
  27.800 1191.626
  27.900 1508.469
  28.000 1781.084
  28.100 1543.114
  28.200 1367.234
  28.300 1080.626
  28.400  875.704
  28.500  834.764
  28.600  747.521
  28.700  818.283
  28.800  985.602
  28.900  781.214
  29.000  923.932
  29.100  842.963
  29.200  791.624
  29.300  682.388
  29.400  851.600
  29.500  822.650
  29.600  876.481
  29.700  929.259
  29.800 1137.283
  29.900 1417.959
  30.000 1465.542
  30.100 1317.935
  30.200 1186.509
  30.300  906.234
  30.400  766.323
  30.500  626.424
  30.600  682.267
  30.700  811.613
  30.800  851.779
  30.900  710.217
  31.000  839.506
  31.100 1078.371
  31.200 1152.383
  31.300 1434.868
  31.400 1539.869
  31.500 1344.552
  31.600 1508.384
  31.700 1396.115
  31.800 1406.260
  31.900 1220.480
  32.000 1000.054
  32.100 1094.596
  32.200 1088.833
  32.300 1056.388
  32.400  790.286
  32.500  717.018
  32.600  700.763
  32.700  688.888
  32.800  690.159
  32.900  771.768
  33.000  642.060
  33.100  644.198
  33.200  751.467
  33.300  628.808
  33.400  606.815
  33.500  569.259
  33.600  539.040
  33.700  678.944
  33.800  636.529
  33.900  803.816
  34.000  644.625
  34.100  704.593
  34.200  745.211
  34.300  807.366
  34.400  833.531
  34.500  980.913
  34.600 1151.278
  34.700 1482.096
  34.800 1659.912
  34.900 1765.551
  35.000 1967.007
  35.100 2701.608
  35.200 2724.359
  35.300 1971.177
  35.400 1455.046
  35.500 1038.292
  35.600  784.878
  35.700  926.007
  35.800  919.036
  35.900  825.166
  36.000  846.007
  36.100  985.216
  36.200  989.325
  36.300  814.433
  36.400  833.763
  36.500  974.894
  36.600 1172.169
  36.700 1091.585
  36.800  951.522
  36.900 1072.714
  37.000  831.132
  37.100  691.801
  37.200  784.720
  37.300  643.066
  37.400  707.917
  37.500  932.557
  37.600  851.882
  37.700  922.768
  37.800 1127.768
  37.900 1191.735
  38.000 1165.410
  38.100  974.103
  38.200  931.436
  38.300  901.541
  38.400  770.136
  38.500  694.208
  38.600  721.022
  38.700  699.571
  38.800  510.725
  38.900  608.715
  39.000  680.182
  39.100  578.281
  39.200  511.211
  39.300  570.591
  39.400  524.879
  39.500  594.203
  39.600  501.725
  39.700  650.343
  39.800  744.294
  39.900  578.711
  40.000  792.278
  40.100  895.066
  40.200  753.277
  40.300  953.336
  40.400  942.634
  40.500  887.062
  40.600  745.916
  40.700  836.152
  40.800  797.479
  40.900  808.675
  41.000  749.260
  41.100  947.003
  41.200  767.008
  41.300  651.710
  41.400  786.130
  41.500  835.220
  41.600  735.667
  41.700  642.944
  41.800  759.160
  41.900  806.068
  42.000  669.168
  42.100  733.858
  42.200  953.401
  42.300  978.785
  42.400  878.184
  42.500  931.649
  42.600 1071.767
  42.700  943.556
  42.800  841.048
  42.900  790.316
  43.000  727.478
  43.100  685.810
  43.200  524.563
  43.300  454.189
  43.400  658.807
  43.500  513.224
  43.600  494.645
  43.700  472.576
  43.800  517.789
  43.900  599.341
  44.000  478.407