File: xrd_output/random_files/2M1-std-8.TXT
Sample
Comments
Filename	C:\WINDMAX\DATA\USERS\GEO\GEO_ER~1\Pyrenees\BULKMA~1\2M1-std2.raw
Goniometer	Ultima IV In-plane
Attachment	Auto sample changer (10 samples)
ScanningMode	2Theta/Theta
ScanningType	Continuos Scanning
X-Ray	40kV/44mA
DivSlit	2/3deg.
DivH.L.Slit	10mm
SctSlit	2/3deg.
RecSlit	0.3mm
Start	16
Stop	44
Step	0.02
Speed	0.3
Offset	0
  16.000  660.515
  16.100  703.298
  16.200  685.213
  16.300  718.418
  16.400  679.963
  16.500  764.328
  16.600  759.929
  16.700  583.813
  16.800  719.383
  16.900  681.011
  17.000  531.060
  17.100  730.038
  17.200  533.015
  17.300  665.552
  17.400  749.597
  17.500  702.050
  17.600  750.152
  17.700  932.088
  17.800 1051.954
  17.900 1467.274
  18.000 1283.641
  18.100 1226.138
  18.200  972.161
  18.300  754.944
  18.400  801.602
  18.500  694.129
  18.600  785.797
  18.700  785.134
  18.800  635.827
  18.900  633.243
  19.000  648.414
  19.100  679.261
  19.200  815.097
  19.300  754.119
  19.400  808.197
  19.500  842.127
  19.600  837.593
  19.700 1224.659
  19.800 1378.694
  19.900 2332.739
  20.000 2708.947
  20.100 2215.794
  20.200 1423.099
  20.300 1111.657
  20.400 1022.253
  20.500  849.704
  20.600 1029.580
  20.700 1066.744
  20.800 1315.272
  20.900 1168.050
  21.000  783.790
  21.100  891.004
  21.200  678.219
  21.300  745.643
  21.400  736.119
  21.500  932.317
  21.600 1078.106
  21.700 1211.332
  21.800 1166.365
  21.900  972.414
  22.000  733.334
  22.100  726.579
  22.200  670.477
  22.300  836.908
  22.400  881.775
  22.500  788.823
  22.600  942.605
  22.700 1047.523
  22.800  910.440
  22.900 1277.200
  23.000 1479.159
  23.100 1488.245
  23.200 1409.440
  23.300 1078.435
  23.400  830.054
  23.500  868.079
  23.600  930.219
  23.700  992.648
  23.800 1145.180
  23.900 1327.623
  24.000 1502.794
  24.100 1431.062
  24.200 1230.910
  24.300 1111.599
  24.400  954.881
  24.500  731.609
  24.600  843.316
  24.700  714.286
  24.800  709.602
  24.900  837.813
  25.000  974.878
  25.100  890.340
  25.200 1127.318
  25.300 1240.937
  25.400 1177.094
  25.500 1384.731
  25.600 1723.880
  25.700 1548.382
  25.800 1410.606
  25.900 1055.665
  26.000  905.947
  26.100  829.137
  26.200  988.677
  26.300  926.755
  26.400 1085.281
  26.500 1011.257
  26.600 1423.740
  26.700 1715.468
  26.800 2226.566
  26.900 2427.629
  27.000 1925.114
  27.100 1460.614
  27.200 1196.756
  27.300 1073.250
  27.400  851.910
  27.500  820.039
  27.600  964.200
  27.700  951.787
  27.800 1166.875
  27.900 1479.889
  28.000 1794.171
  28.100 1414.867
  28.200 1209.718
  28.300 1097.227
  28.400  852.831
  28.500  959.383
  28.600  864.514
  28.700 1035.335
  28.800  841.483
  28.900  806.967
  29.000  723.978
  29.100  840.042
  29.200  865.396
  29.300  799.469
  29.400  642.506
  29.500  763.164
  29.600  708.850
  29.700  784.475
  29.800 1096.333
  29.900 1437.088
  30.000 1450.960
  30.100 1467.636
  30.200 1046.354
  30.300  929.125
  30.400  902.106
  30.500  652.687
  30.600  627.637
  30.700  716.787
  30.800  710.056
  30.900  723.639
  31.000  752.066
  31.100 1081.848
  31.200 1222.505
  31.300 1323.378
  31.400 1442.409
  31.500 1537.332
  31.600 1344.506
  31.700 1446.585
  31.800 1382.185
  31.900 1208.634
  32.000  944.755
  32.100  987.436
  32.200 1208.226
  32.300 1062.096
  32.400  930.338
  32.500  810.420
  32.600  874.126
  32.700  653.491
  32.800  666.489
  32.900  653.727
  33.000  826.649
  33.100  560.333
  33.200  732.924
  33.300  617.370
  33.400  529.462
  33.500  601.599
  33.600  702.716
  33.700  556.100
  33.800  626.764
  33.900  713.341
  34.000  603.119
  34.100  850.401
  34.200  828.767
  34.300  713.168
  34.400  714.718
  34.500  800.915
  34.600 1116.300
  34.700 1541.702
  34.800 1683.606
  34.900 1853.497
  35.000 2011.340
  35.100 2629.769
  35.200 2722.593
  35.300 2093.742
  35.400 1319.778
  35.500 1117.180
  35.600  769.926
  35.700  867.557
  35.800  821.357
  35.900  931.433
  36.000  921.878
  36.100  837.568
  36.200  833.936
  36.300  921.639
  36.400  891.012
  36.500  919.437
  36.600 1011.418
  36.700  950.475
  36.800 1045.857
  36.900 1093.373
  37.000  949.735
  37.100  933.289
  37.200  675.680
  37.300  765.746
  37.400  852.845
  37.500  824.801
  37.600  948.668
  37.700  990.827
  37.800  989.697
  37.900 1223.024
  38.000 1287.760
  38.100  935.826
  38.200  759.857
  38.300  877.142
  38.400  734.185
  38.500  816.641
  38.600  685.941
  38.700  525.002
  38.800  724.992
  38.900  695.338
  39.000  682.715
  39.100  548.998
  39.200  697.337
  39.300  550.135
  39.400  689.612
  39.500  568.691
  39.600  501.550
  39.700  618.531
  39.800  588.966
  39.900  607.982
  40.000  572.990
  40.100  829.591
  40.200  949.607
  40.300  976.979
  40.400  773.703
  40.500  901.480
  40.600  789.178
  40.700  668.722
  40.800  823.568
  40.900  962.987
  41.000  820.010
  41.100  822.386
  41.200  770.522
  41.300  765.579
  41.400  794.336
  41.500  681.703
  41.600  632.353
  41.700  670.485
  41.800  593.503
  41.900  588.628
  42.000  663.842
  42.100  957.528
  42.200  970.247
  42.300 1023.037
  42.400  930.271
  42.500 1139.747
  42.600  968.490
  42.700 1033.664
  42.800  789.520
  42.900  546.751
  43.000  694.807
  43.100  539.036
  43.200  452.783
  43.300  684.569
  43.400  650.021
  43.500  681.986
  43.600  446.724
  43.700  633.732
  43.800  654.783
  43.900  666.285
  44.000  684.452