File: xrd_output/random_files/2M1-std-0.TXT
Sample
Comments
Filename	C:\WINDMAX\DATA\USERS\GEO\GEO_ER~1\Pyrenees\BULKMA~1\2M1-std2.raw
Goniometer	Ultima IV In-plane
Attachment	Auto sample changer (10 samples)
ScanningMode	2Theta/Theta
ScanningType	Continuos Scanning
X-Ray	40kV/44mA
DivSlit	2/3deg.
DivH.L.Slit	10mm
SctSlit	2/3deg.
RecSlit	0.3mm
Start	16
Stop	44
Step	0.02
Speed	0.3
Offset	0
  16.000  667.632
  16.100  662.559
  16.200  586.931
  16.300  613.566
  16.400  591.056
  16.500  553.750
  16.600  512.798
  16.700  690.883
  16.800  683.076
  16.900  687.153
  17.000  520.807
  17.100  601.476
  17.200  728.702
  17.300  555.093
  17.400  564.891
  17.500  731.315
  17.600  659.827
  17.700  967.000
  17.800 1060.442
  17.900 1308.603
  18.000 1197.089
  18.100 1175.884
  18.200 1067.334
  18.300  731.924
  18.400  623.638
  18.500  846.213
  18.600  681.486
  18.700  638.628
  18.800  702.001
  18.900  788.333
  19.000  685.228
  19.100  787.638
  19.200  605.610
  19.300  776.658
  19.400  794.961
  19.500  884.061
  19.600  912.314
  19.700 1049.930
  19.800 1536.449
  19.900 2284.812
  20.000 2720.783
  20.100 2306.309
  20.200 1619.273
  20.300 1183.788
  20.400 1081.034
  20.500  842.675
  20.600 1060.298
  20.700 1180.082
  20.800 1288.641
  20.900 1137.759
  21.000  924.237
  21.100  703.267
  21.200  832.447
  21.300  879.480
  21.400  856.595
  21.500 1035.562
  21.600 1113.854
  21.700  973.245
  21.800 1050.582
  21.900  901.530
  22.000  943.318
  22.100  818.615
  22.200  910.718
  22.300  730.374
  22.400  938.178
  22.500  877.515
  22.600  915.713
  22.700 1045.241
  22.800  968.286
  22.900 1354.251
  23.000 1651.134
  23.100 1721.010
  23.200 1386.662
  23.300 1026.747
  23.400  914.097
  23.500  773.765
  23.600  830.455
  23.700  941.564
  23.800 1180.212
  23.900 1433.119
  24.000 1627.332
  24.100 1486.947
  24.200 1201.039
  24.300 1110.577
  24.400 1045.161
  24.500  739.307
  24.600  692.409
  24.700  872.435
  24.800  905.917
  24.900  803.099
  25.000  962.411
  25.100  948.752
  25.200 1003.268
  25.300 1235.889
  25.400 1082.853
  25.500 1463.602
  25.600 1664.411
  25.700 1658.495
  25.800 1318.136
  25.900 1107.066
  26.000  999.101
  26.100  827.440
  26.200  801.324
  26.300  953.299
  26.400  969.868
  26.500 1225.372
  26.600 1430.814
  26.700 1948.503
  26.800 2365.617
  26.900 2250.186
  27.000 1968.801
  27.100 1435.771
  27.200 1135.183
  27.300 1055.292
  27.400  847.642
  27.500 1015.495
  27.600  999.411
  27.700 1049.552
  27.800 1238.342
  27.900 1384.604
  28.000 1754.722
  28.100 1494.631
  28.200 1354.383
  28.300  972.135
  28.400 1035.606
  28.500 1019.547
  28.600  841.301
  28.700 1012.717
  28.800  798.134
  28.900 1003.040
  29.000  754.723
  29.100  786.803
  29.200  853.489
  29.300  669.058
  29.400  682.340
  29.500  742.334
  29.600  770.568
  29.700  775.144
  29.800 1158.739
  29.900 1426.585
  30.000 1525.740
  30.100 1476.638
  30.200 1163.147
  30.300  819.387
  30.400  750.058
  30.500  822.847
  30.600  735.624
  30.700  642.748
  30.800  657.039
  30.900  652.928
  31.000  926.889
  31.100  867.219
  31.200 1108.876
  31.300 1297.419
  31.400 1607.720
  31.500 1476.754
  31.600 1579.828
  31.700 1546.198
  31.800 1284.659
  31.900 1135.496
  32.000 1127.614
  32.100 1012.881
  32.200 1286.744
  32.300 1183.743
  32.400  879.256
  32.500  883.398
  32.600  817.732
  32.700  647.130
  32.800  705.929
  32.900  663.668
  33.000  823.636
  33.100  787.155
  33.200  799.102
  33.300  764.042
  33.400  543.195
  33.500  507.937
  33.600  630.987
  33.700  624.966
  33.800  728.516
  33.900  575.882
  34.000  609.732
  34.100  735.869
  34.200  766.066
  34.300  777.123
  34.400  834.267
  34.500  920.182
  34.600 1194.247
  34.700 1509.254
  34.800 1702.231
  34.900 1895.765
  35.000 2042.687
  35.100 2769.090
  35.200 2776.379
  35.300 1971.336
  35.400 1302.078
  35.500 1129.833
  35.600  901.565
  35.700  693.251
  35.800  721.068
  35.900  856.999
  36.000  899.304
  36.100  893.837
  36.200  943.459
  36.300  941.365
  36.400  837.915
  36.500 1096.934
  36.600 1000.625
  36.700 1196.216
  36.800 1046.987
  36.900 1005.773
  37.000  930.139
  37.100  913.968
  37.200  723.005
  37.300  820.740
  37.400  934.280
  37.500  828.271
  37.600  817.223
  37.700  950.992
  37.800 1222.471
  37.900 1113.349
  38.000 1098.549
  38.100  901.380
  38.200  882.968
  38.300  824.779
  38.400  784.953
  38.500  695.796
  38.600  571.060
  38.700  681.676
  38.800  608.594
  38.900  679.251
  39.000  684.142
  39.100  701.029
  39.200  575.925
  39.300  679.475
  39.400  581.596
  39.500  550.919
  39.600  556.762
  39.700  506.817
  39.800  529.357
  39.900  777.650
  40.000  794.302
  40.100  776.875
  40.200  975.274
  40.300  877.815
  40.400  769.899
  40.500  855.671
  40.600  736.218
  40.700  859.035
  40.800  702.146
  40.900  984.075
  41.000  818.088
  41.100  958.561
  41.200  835.596
  41.300  663.234
  41.400  747.108
  41.500  745.019
  41.600  646.169
  41.700  770.350
  41.800  553.666
  41.900  706.990
  42.000  678.719
  42.100  742.848
  42.200  945.809
  42.300 1082.943
  42.400  875.568
  42.500 1001.473
  42.600  934.811
  42.700 1015.822
  42.800  794.701
  42.900  542.588
  43.000  523.412
  43.100  534.092
  43.200  529.585
  43.300  648.692
  43.400  596.322
  43.500  626.714
  43.600  576.886
  43.700  586.408
  43.800  665.628
  43.900  720.644
  44.000  723.953