File: xrd_output/random_files/2M1-std-46.TXT
Sample
Comments
Filename	C:\WINDMAX\DATA\USERS\GEO\GEO_ER~1\Pyrenees\BULKMA~1\2M1-std2.raw
Goniometer	Ultima IV In-plane
Attachment	Auto sample changer (10 samples)
ScanningMode	2Theta/Theta
ScanningType	Continuos Scanning
X-Ray	40kV/44mA
DivSlit	2/3deg.
DivH.L.Slit	10mm
SctSlit	2/3deg.
RecSlit	0.3mm
Start	16
Stop	44
Step	0.02
Speed	0.3
Offset	0
  16.000  655.495
  16.100  783.093
  16.200  821.343
  16.300  729.853
  16.400  516.306
  16.500  605.851
  16.600  733.498
  16.700  762.554
  16.800  662.250
  16.900  601.026
  17.000  587.612
  17.100  642.984
  17.200  683.336
  17.300  641.825
  17.400  619.477
  17.500  612.842
  17.600  895.647
  17.700 1031.383
  17.800  995.577
  17.900 1223.242
  18.000 1444.816
  18.100 1096.969
  18.200  912.352
  18.300  678.453
  18.400  670.543
  18.500  787.222
  18.600  694.806
  18.700  671.381
  18.800  668.987
  18.900  692.998
  19.000  603.434
  19.100  734.905
  19.200  828.057
  19.300  779.600
  19.400  803.131
  19.500  762.358
  19.600  878.159
  19.700 1194.997
  19.800 1434.766
  19.900 2260.734
  20.000 2763.217
  20.100 2437.180
  20.200 1580.873
  20.300 1237.990
  20.400 1078.673
  20.500 1043.439
  20.600 1073.553
  20.700 1150.176
  20.800 1277.503
  20.900 1027.467
  21.000  816.211
  21.100  738.332
  21.200  693.848
  21.300  761.476
  21.400  731.753
  21.500  859.182
  21.600 1029.143
  21.700 1146.269
  21.800 1028.619
  21.900  920.127
  22.000  881.876
  22.100  800.922
  22.200  858.207
  22.300  883.112
  22.400  857.891
  22.500  970.839
  22.600 1016.798
  22.700  938.938
  22.800 1037.791
  22.900 1360.898
  23.000 1585.386
  23.100 1629.888
  23.200 1241.740
  23.300 1131.385
  23.400  970.190
  23.500  781.353
  23.600  904.301
  23.700  906.816
  23.800 1088.901
  23.900 1319.763
  24.000 1658.976
  24.100 1497.981
  24.200 1194.012
  24.300 1047.338
  24.400 1065.160
  24.500  821.214
  24.600  792.232
  24.700  765.405
  24.800  848.017
  24.900  848.770
  25.000  783.657
  25.100 1094.059
  25.200  982.473
  25.300 1131.682
  25.400 1079.162
  25.500 1511.057
  25.600 1636.555
  25.700 1601.135
  25.800 1276.042
  25.900 1072.156
  26.000  915.944
  26.100  953.337
  26.200  875.718
  26.300  823.374
  26.400  856.147
  26.500 1161.880
  26.600 1502.922
  26.700 1745.229
  26.800 2284.348
  26.900 2452.599
  27.000 1790.563
  27.100 1468.660
  27.200  996.704
  27.300  894.622
  27.400  954.270
  27.500  938.525
  27.600  914.626
  27.700  985.026
  27.800 1047.037
  27.900 1555.721
  28.000 1811.709
  28.100 1644.806
  28.200 1315.224
  28.300 1154.278
  28.400  933.590
  28.500  909.634
  28.600  857.998
  28.700  880.502
  28.800  997.988
  28.900  997.773
  29.000  870.934
  29.100  929.767
  29.200  684.971
  29.300  771.590
  29.400  682.817
  29.500  724.295
  29.600  760.543
  29.700  977.295
  29.800 1036.309
  29.900 1404.502
  30.000 1608.355
  30.100 1511.527
  30.200 1263.116
  30.300 1010.705
  30.400  694.424
  30.500  830.270
  30.600  665.360
  30.700  591.515
  30.800  829.597
  30.900  776.018
  31.000  792.564
  31.100  868.608
  31.200 1197.450
  31.300 1317.134
  31.400 1459.012
  31.500 1483.188
  31.600 1538.341
  31.700 1326.013
  31.800 1307.419
  31.900 1044.047
  32.000 1058.067
  32.100 1174.691
  32.200 1098.480
  32.300 1150.182
  32.400  809.466
  32.500  784.631
  32.600  615.770
  32.700  799.590
  32.800  695.999
  32.900  829.659
  33.000  676.332
  33.100  748.332
  33.200  604.749
  33.300  550.308
  33.400  627.037
  33.500  538.929
  33.600  720.506
  33.700  646.607
  33.800  719.664
  33.900  740.330
  34.000  615.920
  34.100  701.502
  34.200  774.638
  34.300  756.527
  34.400  699.630
  34.500  789.769
  34.600 1147.659
  34.700 1499.843
  34.800 1661.039
  34.900 1876.419
  35.000 1946.447
  35.100 2631.998
  35.200 2695.542
  35.300 1965.731
  35.400 1480.523
  35.500  912.214
  35.600  770.699
  35.700  926.532
  35.800  801.647
  35.900  860.546
  36.000  729.755
  36.100  883.352
  36.200  886.356
  36.300  694.531
  36.400  891.636
  36.500  967.913
  36.600  985.124
  36.700 1027.960
  36.800  927.357
  36.900  934.110
  37.000 1032.215
  37.100  741.928
  37.200  709.301
  37.300  846.409
  37.400  810.146
  37.500  960.693
  37.600  992.516
  37.700 1023.997
  37.800 1103.936
  37.900 1162.263
  38.000 1141.438
  38.100 1027.515
  38.200  865.267
  38.300  809.589
  38.400  642.808
  38.500  595.442
  38.600  570.828
  38.700  687.790
  38.800  628.166
  38.900  572.333
  39.000  537.142
  39.100  702.297
  39.200  723.836
  39.300  650.778
  39.400  704.001
  39.500  542.759
  39.600  591.070
  39.700  696.459
  39.800  666.519
  39.900  777.139
  40.000  667.830
  40.100  809.143
  40.200  790.254
  40.300  843.121
  40.400  813.830
  40.500  903.057
  40.600  899.419
  40.700  733.688
  40.800  804.535
  40.900  811.944
  41.000  974.187
  41.100  860.416
  41.200  871.411
  41.300  747.670
  41.400  819.237
  41.500  677.270
  41.600  724.722
  41.700  727.934
  41.800  633.231
  41.900  595.450
  42.000  772.673
  42.100  916.919
  42.200  892.680
  42.300  965.559
  42.400 1048.684
  42.500 1079.993
  42.600 1082.049
  42.700  971.218
  42.800  727.884
  42.900  760.213
  43.000  564.795
  43.100  541.163
  43.200  548.268
  43.300  446.777
  43.400  536.824
  43.500  669.402
  43.600  568.305
  43.700  488.032
  43.800  658.076
  43.900  678.256
  44.000  690.787