File: xrd_output/random_files/2M1-std-39.TXT
Sample
Comments
Filename	C:\WINDMAX\DATA\USERS\GEO\GEO_ER~1\Pyrenees\BULKMA~1\2M1-std2.raw
Goniometer	Ultima IV In-plane
Attachment	Auto sample changer (10 samples)
ScanningMode	2Theta/Theta
ScanningType	Continuos Scanning
X-Ray	40kV/44mA
DivSlit	2/3deg.
DivH.L.Slit	10mm
SctSlit	2/3deg.
RecSlit	0.3mm
Start	16
Stop	44
Step	0.02
Speed	0.3
Offset	0
  16.000  759.933
  16.100  701.511
  16.200  794.464
  16.300  575.686
  16.400  676.525
  16.500  529.209
  16.600  532.726
  16.700  510.163
  16.800  715.479
  16.900  588.638
  17.000  546.231
  17.100  526.162
  17.200  619.773
  17.300  606.528
  17.400  767.757
  17.500  837.324
  17.600  821.218
  17.700  993.775
  17.800 1154.504
  17.900 1272.626
  18.000 1197.865
  18.100 1109.088
  18.200  843.454
  18.300  656.457
  18.400  770.857
  18.500  709.708
  18.600  659.694
  18.700  823.850
  18.800  752.303
  18.900  806.981
  19.000  622.374
  19.100  737.419
  19.200  770.382
  19.300  812.957
  19.400  872.899
  19.500  687.836
  19.600  882.146
  19.700 1153.907
  19.800 1427.625
  19.900 2215.764
  20.000 2586.397
  20.100 2222.002
  20.200 1523.582
  20.300 1152.034
  20.400 1122.417
  20.500  997.534
  20.600  883.146
  20.700 1214.147
  20.800 1324.134
  20.900 1005.269
  21.000  973.140
  21.100  822.956
  21.200  915.440
  21.300  796.854
  21.400  738.812
  21.500  964.658
  21.600 1013.226
  21.700 1061.251
  21.800  995.342
  21.900  970.385
  22.000  816.644
  22.100  819.855
  22.200  729.117
  22.300  871.818
  22.400  922.560
  22.500  883.133
  22.600  909.556
  22.700  956.551
  22.800  970.283
  22.900 1273.769
  23.000 1430.396
  23.100 1579.414
  23.200 1302.003
  23.300 1048.705
  23.400  959.249
  23.500  856.868
  23.600  998.037
  23.700  963.804
  23.800 1274.337
  23.900 1457.327
  24.000 1556.095
  24.100 1493.760
  24.200 1426.177
  24.300 1131.753
  24.400 1053.353
  24.500  855.510
  24.600  898.551
  24.700  860.738
  24.800  729.788
  24.900  846.613
  25.000  992.498
  25.100 1084.198
  25.200  987.645
  25.300 1201.994
  25.400 1268.638
  25.500 1552.119
  25.600 1633.796
  25.700 1633.786
  25.800 1284.749
  25.900 1146.244
  26.000  978.118
  26.100  774.234
  26.200  848.342
  26.300  957.839
  26.400 1045.384
  26.500 1212.889
  26.600 1367.597
  26.700 1718.285
  26.800 2327.732
  26.900 2327.933
  27.000 1976.963
  27.100 1304.024
  27.200 1195.290
  27.300  973.287
  27.400  857.554
  27.500  961.763
  27.600 1041.549
  27.700  895.487
  27.800 1105.254
  27.900 1435.227
  28.000 1714.820
  28.100 1593.711
  28.200 1149.432
  28.300 1070.649
  28.400  972.570
  28.500  813.467
  28.600  749.273
  28.700 1015.952
  28.800  991.849
  28.900  945.079
  29.000  729.267
  29.100  930.838
  29.200  842.800
  29.300  699.256
  29.400  862.186
  29.500  749.506
  29.600  837.021
  29.700  782.301
  29.800 1074.912
  29.900 1246.319
  30.000 1550.165
  30.100 1295.864
  30.200 1041.938
  30.300  803.755
  30.400  850.390
  30.500  813.540
  30.600  649.992
  30.700  750.766
  30.800  618.157
  30.900  643.301
  31.000  909.975
  31.100 1068.091
  31.200 1257.050
  31.300 1493.478
  31.400 1689.365
  31.500 1390.173
  31.600 1573.913
  31.700 1392.388
  31.800 1344.957
  31.900 1237.953
  32.000 1122.935
  32.100 1217.980
  32.200 1274.431
  32.300 1072.602
  32.400  725.034
  32.500  686.080
  32.600  750.102
  32.700  640.302
  32.800  750.850
  32.900  730.958
  33.000  769.323
  33.100  617.183
  33.200  588.309
  33.300  641.761
  33.400  617.861
  33.500  519.893
  33.600  575.116
  33.700  535.077
  33.800  560.247
  33.900  678.806
  34.000  809.705
  34.100  828.974
  34.200  673.853
  34.300  763.522
  34.400  719.486
  34.500  967.728
  34.600 1049.703
  34.700 1624.452
  34.800 1807.439
  34.900 1797.209
  35.000 1964.432
  35.100 2681.031
  35.200 2873.616
  35.300 2104.945
  35.400 1500.355
  35.500  920.409
  35.600  770.401
  35.700  712.259
  35.800  839.930
  35.900  884.224
  36.000  864.698
  36.100  838.180
  36.200  824.159
  36.300  944.455
  36.400  765.243
  36.500  904.775
  36.600 1083.425
  36.700 1037.781
  36.800 1110.031
  36.900  965.488
  37.000  881.562
  37.100  907.591
  37.200  852.505
  37.300  782.652
  37.400  696.382
  37.500  970.466
  37.600  941.234
  37.700 1100.168
  37.800 1228.306
  37.900 1160.914
  38.000 1286.198
  38.100  964.073
  38.200  800.711
  38.300  843.505
  38.400  801.336
  38.500  743.466
  38.600  621.427
  38.700  685.022
  38.800  657.402
  38.900  625.448
  39.000  506.264
  39.100  592.508
  39.200  656.988
  39.300  733.859
  39.400  528.212
  39.500  612.465
  39.600  604.424
  39.700  538.715
  39.800  665.383
  39.900  659.805
  40.000  544.174
  40.100  867.518
  40.200  805.620
  40.300  793.750
  40.400  867.404
  40.500  801.753
  40.600  932.468
  40.700  834.884
  40.800  783.188
  40.900  971.329
  41.000  900.922
  41.100  758.797
  41.200  906.470
  41.300  748.390
  41.400  677.594
  41.500  866.745
  41.600  672.659
  41.700  605.604
  41.800  583.305
  41.900  726.128
  42.000  669.923
  42.100  890.978
  42.200  870.328
  42.300  940.960
  42.400 1089.891
  42.500 1017.060
  42.600  972.753
  42.700  985.873
  42.800  862.914
  42.900  586.585
  43.000  631.012
  43.100  587.910
  43.200  577.458
  43.300  514.025
  43.400  476.816
  43.500  577.509
  43.600  622.416
  43.700  529.751
  43.800  540.250
  43.900  499.818
  44.000  707.806