File: xrd_output/random_files/2M1-std-48.TXT
Sample
Comments
Filename	C:\WINDMAX\DATA\USERS\GEO\GEO_ER~1\Pyrenees\BULKMA~1\2M1-std2.raw
Goniometer	Ultima IV In-plane
Attachment	Auto sample changer (10 samples)
ScanningMode	2Theta/Theta
ScanningType	Continuos Scanning
X-Ray	40kV/44mA
DivSlit	2/3deg.
DivH.L.Slit	10mm
SctSlit	2/3deg.
RecSlit	0.3mm
Start	16
Stop	44
Step	0.02
Speed	0.3
Offset	0
  16.000  804.714
  16.100  715.449
  16.200  652.802
  16.300  529.770
  16.400  638.130
  16.500  675.100
  16.600  706.259
  16.700  745.189
  16.800  570.950
  16.900  775.180
  17.000  618.782
  17.100  679.121
  17.200  701.225
  17.300  637.787
  17.400  769.255
  17.500  752.386
  17.600  754.498
  17.700  960.393
  17.800  968.095
  17.900 1238.978
  18.000 1386.489
  18.100 1069.024
  18.200  822.920
  18.300  637.148
  18.400  787.471
  18.500  727.121
  18.600  857.406
  18.700  834.045
  18.800  671.759
  18.900  799.092
  19.000  752.645
  19.100  630.940
  19.200  786.856
  19.300  711.953
  19.400  673.479
  19.500  807.021
  19.600  887.706
  19.700 1216.693
  19.800 1390.261
  19.900 2254.409
  20.000 2679.509
  20.100 2447.278
  20.200 1536.974
  20.300 1111.725
  20.400 1147.758
  20.500 1009.785
  20.600 1113.196
  20.700 1234.800
  20.800 1268.312
  20.900  986.880
  21.000  802.259
  21.100  692.094
  21.200  767.963
  21.300  924.776
  21.400  791.645
  21.500 1016.655
  21.600 1053.449
  21.700 1036.232
  21.800 1016.170
  21.900  815.206
  22.000  800.074
  22.100  745.301
  22.200  814.924
  22.300  859.163
  22.400  961.434
  22.500  833.621
  22.600  930.838
  22.700  867.199
  22.800 1007.571
  22.900 1173.279
  23.000 1437.393
  23.100 1664.546
  23.200 1342.737
  23.300 1120.650
  23.400  825.518
  23.500  860.340
  23.600  874.361
  23.700  938.978
  23.800 1288.188
  23.900 1426.461
  24.000 1472.135
  24.100 1369.558
  24.200 1296.627
  24.300 1177.823
  24.400 1061.171
  24.500  915.055
  24.600  850.492
  24.700  920.275
  24.800  821.044
  24.900  747.883
  25.000  803.510
  25.100  950.787
  25.200 1169.285
  25.300 1069.923
  25.400 1247.141
  25.500 1431.623
  25.600 1744.563
  25.700 1568.295
  25.800 1185.217
  25.900  965.529
  26.000 1032.834
  26.100  834.554
  26.200  889.997
  26.300  918.970
  26.400  853.744
  26.500 1116.867
  26.600 1452.008
  26.700 1905.035
  26.800 2370.287
  26.900 2220.138
  27.000 1950.732
  27.100 1459.547
  27.200 1103.952
  27.300  999.320
  27.400  931.224
  27.500  949.421
  27.600  924.466
  27.700 1102.409
  27.800 1199.764
  27.900 1496.502
  28.000 1822.585
  28.100 1531.564
  28.200 1351.160
  28.300  971.690
  28.400 1053.853
  28.500  789.016
  28.600  898.796
  28.700  803.654
  28.800  863.742
  28.900  919.020
  29.000  847.847
  29.100  883.383
  29.200  839.470
  29.300  690.833
  29.400  727.082
  29.500  816.881
  29.600  787.193
  29.700  999.192
  29.800 1180.296
  29.900 1384.224
  30.000 1497.331
  30.100 1474.965
  30.200 1012.069
  30.300  886.474
  30.400  735.891
  30.500  604.389
  30.600  724.151
  30.700  803.774
  30.800  663.201
  30.900  852.945
  31.000  896.431
  31.100 1021.069
  31.200 1243.228
  31.300 1363.422
  31.400 1566.137
  31.500 1471.395
  31.600 1385.205
  31.700 1292.088
  31.800 1310.803
  31.900 1166.972
  32.000 1048.913
  32.100 1126.895
  32.200 1101.457
  32.300 1089.670
  32.400  925.203
  32.500  715.328
  32.600  746.455
  32.700  609.903
  32.800  781.735
  32.900  791.772
  33.000  709.670
  33.100  558.287
  33.200  743.186
  33.300  771.790
  33.400  665.752
  33.500  580.707
  33.600  735.047
  33.700  685.598
  33.800  802.783
  33.900  673.124
  34.000  727.108
  34.100  690.724
  34.200  744.691
  34.300  623.758
  34.400  781.477
  34.500  899.887
  34.600 1242.234
  34.700 1387.748
  34.800 1713.976
  34.900 1718.008
  35.000 1994.394
  35.100 2659.664
  35.200 2750.860
  35.300 2028.872
  35.400 1347.349
  35.500 1100.482
  35.600  986.566
  35.700  730.221
  35.800  788.215
  35.900  956.451
  36.000  881.306
  36.100  899.532
  36.200  934.641
  36.300  873.194
  36.400  984.652
  36.500 1087.117
  36.600 1214.843
  36.700 1123.449
  36.800  928.111
  36.900  929.108
  37.000  835.675
  37.100  843.841
  37.200  801.250
  37.300  776.794
  37.400  700.387
  37.500  978.768
  37.600  833.917
  37.700  940.730
  37.800 1166.728
  37.900 1175.639
  38.000 1157.874
  38.100 1043.325
  38.200  816.815
  38.300  735.952
  38.400  750.158
  38.500  599.403
  38.600  525.620
  38.700  637.676
  38.800  579.682
  38.900  500.130
  39.000  559.854
  39.100  716.298
  39.200  731.400
  39.300  626.118
  39.400  682.877
  39.500  629.405
  39.600  520.270
  39.700  599.831
  39.800  680.069
  39.900  716.680
  40.000  728.597
  40.100  660.394
  40.200  961.851
  40.300  957.608
  40.400  911.569
  40.500  680.745
  40.600  792.675
  40.700  633.395
  40.800  940.247
  40.900  781.751
  41.000  926.867
  41.100  959.145
  41.200  704.840
  41.300  860.119
  41.400  699.074
  41.500  673.035
  41.600  792.581
  41.700  669.327
  41.800  757.281
  41.900  807.792
  42.000  743.968
  42.100  898.532
  42.200  985.746
  42.300  905.329
  42.400  991.580
  42.500 1151.713
  42.600 1152.308
  42.700  901.159
  42.800  859.897
  42.900  533.165
  43.000  557.038
  43.100  629.403
  43.200  539.667
  43.300  658.372
  43.400  480.506
  43.500  557.170
  43.600  451.131
  43.700  508.765
  43.800  531.031
  43.900  536.446
  44.000  710.304