File: xrd_output/random_files/2M1-std-1.TXT
Sample
Comments
Filename	C:\WINDMAX\DATA\USERS\GEO\GEO_ER~1\Pyrenees\BULKMA~1\2M1-std2.raw
Goniometer	Ultima IV In-plane
Attachment	Auto sample changer (10 samples)
ScanningMode	2Theta/Theta
ScanningType	Continuos Scanning
X-Ray	40kV/44mA
DivSlit	2/3deg.
DivH.L.Slit	10mm
SctSlit	2/3deg.
RecSlit	0.3mm
Start	16
Stop	44
Step	0.02
Speed	0.3
Offset	0
  16.000  784.768
  16.100  829.045
  16.200  713.137
  16.300  705.758
  16.400  540.204
  16.500  668.490
  16.600  755.410
  16.700  712.552
  16.800  530.260
  16.900  596.877
  17.000  627.566
  17.100  527.213
  17.200  575.190
  17.300  692.804
  17.400  795.125
  17.500  801.310
  17.600  709.748
  17.700  967.512
  17.800 1088.775
  17.900 1404.207
  18.000 1218.021
  18.100 1073.228
  18.200  919.198
  18.300  838.807
  18.400  710.115
  18.500  633.133
  18.600  840.350
  18.700  847.243
  18.800  852.054
  18.900  580.926
  19.000  564.041
  19.100  613.451
  19.200  825.210
  19.300  775.069
  19.400  872.396
  19.500  800.407
  19.600 1056.453
  19.700 1251.040
  19.800 1451.241
  19.900 2097.659
  20.000 2648.149
  20.100 2434.446
  20.200 1429.504
  20.300 1177.785
  20.400  956.747
  20.500 1064.704
  20.600  955.131
  20.700 1020.653
  20.800 1092.579
  20.900 1153.200
  21.000  879.625
  21.100  884.556
  21.200  673.137
  21.300  860.950
  21.400  757.534
  21.500  796.325
  21.600  969.738
  21.700 1170.258
  21.800 1068.508
  21.900  895.494
  22.000  842.497
  22.100  922.223
  22.200  727.187
  22.300  707.462
  22.400  893.870
  22.500  966.690
  22.600  839.915
  22.700  956.887
  22.800 1142.345
  22.900 1143.291
  23.000 1462.929
  23.100 1737.931
  23.200 1361.997
  23.300 1125.681
  23.400  826.216
  23.500  965.118
  23.600  858.430
  23.700  958.580
  23.800 1068.504
  23.900 1424.228
  24.000 1602.248
  24.100 1517.045
  24.200 1361.814
  24.300 1016.061
  24.400 1012.302
  24.500  737.424
  24.600  721.368
  24.700  811.014
  24.800  906.780
  24.900  760.659
  25.000  785.800
  25.100 1057.917
  25.200  995.189
  25.300 1051.546
  25.400 1082.402
  25.500 1421.611
  25.600 1610.459
  25.700 1743.930
  25.800 1371.166
  25.900  886.233
  26.000  894.819
  26.100  962.765
  26.200  771.072
  26.300  795.703
  26.400  910.878
  26.500 1073.617
  26.600 1396.751
  26.700 1848.043
  26.800 2361.005
  26.900 2244.043
  27.000 1916.488
  27.100 1448.316
  27.200 1058.881
  27.300 1001.637
  27.400  909.267
  27.500  907.401
  27.600  851.089
  27.700 1067.082
  27.800 1106.944
  27.900 1335.353
  28.000 1577.972
  28.100 1644.348
  28.200 1160.446
  28.300 1014.358
  28.400 1001.814
  28.500  818.604
  28.600  936.444
  28.700 1036.316
  28.800  820.538
  28.900  858.564
  29.000  733.541
  29.100  945.079
  29.200  831.965
  29.300  704.600
  29.400  758.602
  29.500  742.585
  29.600  834.506
  29.700  790.979
  29.800 1046.395
  29.900 1370.118
  30.000 1501.759
  30.100 1304.556
  30.200 1108.415
  30.300  785.766
  30.400  929.501
  30.500  850.539
  30.600  647.605
  30.700  751.993
  30.800  674.572
  30.900  805.505
  31.000  766.959
  31.100  846.428
  31.200 1172.120
  31.300 1377.128
  31.400 1581.832
  31.500 1454.526
  31.600 1370.322
  31.700 1295.457
  31.800 1314.907
  31.900 1129.502
  32.000 1077.446
  32.100 1018.264
  32.200 1030.986
  32.300 1054.221
  32.400  756.598
  32.500  803.630
  32.600  682.229
  32.700  818.780
  32.800  733.086
  32.900  589.537
  33.000  629.740
  33.100  741.179
  33.200  606.839
  33.300  550.398
  33.400  771.970
  33.500  709.334
  33.600  698.788
  33.700  702.241
  33.800  577.997
  33.900  565.617
  34.000  796.138
  34.100  689.740
  34.200  740.466
  34.300  800.896
  34.400  735.923
  34.500  797.284
  34.600 1038.838
  34.700 1532.466
  34.800 1772.217
  34.900 1651.621
  35.000 1959.652
  35.100 2731.116
  35.200 2834.146
  35.300 2019.926
  35.400 1335.931
  35.500  963.724
  35.600  889.664
  35.700  811.920
  35.800  683.155
  35.900  730.325
  36.000  740.540
  36.100  850.776
  36.200  993.030
  36.300  774.554
  36.400  916.258
  36.500  938.930
  36.600 1016.226
  36.700  973.783
  36.800 1002.248
  36.900 1050.340
  37.000 1039.466
  37.100  924.474
  37.200  663.505
  37.300  735.931
  37.400  692.968
  37.500  851.800
  37.600 1013.274
  37.700 1074.558
  37.800 1189.212
  37.900 1139.975
  38.000 1033.101
  38.100  903.601
  38.200  757.948
  38.300  845.093
  38.400  785.768
  38.500  790.403
  38.600  584.439
  38.700  654.778
  38.800  714.308
  38.900  634.783
  39.000  671.759
  39.100  618.477
  39.200  609.993
  39.300  501.627
  39.400  494.427
  39.500  651.549
  39.600  582.783
  39.700  693.731
  39.800  545.127
  39.900  565.635
  40.000  653.804
  40.100  820.315
  40.200  841.937
  40.300  811.147
  40.400  742.517
  40.500  769.691
  40.600  869.936
  40.700  834.555
  40.800  791.629
  40.900  758.386
  41.000  853.928
  41.100  960.909
  41.200  827.238
  41.300  789.732
  41.400  837.194
  41.500  849.254
  41.600  649.429
  41.700  746.858
  41.800  630.552
  41.900  785.891
  42.000  902.512
  42.100  881.662
  42.200 1014.002
  42.300  958.584
  42.400  874.266
  42.500 1125.931
  42.600 1113.963
  42.700  985.892
  42.800  854.455
  42.900  780.453
  43.000  582.931
  43.100  578.346
  43.200  615.133
  43.300  534.420
  43.400  564.153
  43.500  607.243
  43.600  472.551
  43.700  644.232
  43.800  517.873
  43.900  494.940
  44.000  733.133