File: xrd_output/random_files/2M1-std-31.TXT
Sample
Comments
Filename	C:\WINDMAX\DATA\USERS\GEO\GEO_ER~1\Pyrenees\BULKMA~1\2M1-std2.raw
Goniometer	Ultima IV In-plane
Attachment	Auto sample changer (10 samples)
ScanningMode	2Theta/Theta
ScanningType	Continuos Scanning
X-Ray	40kV/44mA
DivSlit	2/3deg.
DivH.L.Slit	10mm
SctSlit	2/3deg.
RecSlit	0.3mm
Start	16
Stop	44
Step	0.02
Speed	0.3
Offset	0
  16.000  766.454
  16.100  759.086
  16.200  716.639
  16.300  623.978
  16.400  528.059
  16.500  566.886
  16.600  508.535
  16.700  710.365
  16.800  679.755
  16.900  569.988
  17.000  610.113
  17.100  583.402
  17.200  641.609
  17.300  589.231
  17.400  586.999
  17.500  625.133
  17.600  808.399
  17.700  826.344
  17.800 1160.976
  17.900 1406.264
  18.000 1446.496
  18.100 1278.038
  18.200  895.058
  18.300  878.137
  18.400  629.920
  18.500  634.405
  18.600  716.478
  18.700  842.571
  18.800  768.757
  18.900  762.592
  19.000  704.969
  19.100  797.989
  19.200  661.557
  19.300  771.890
  19.400  841.832
  19.500  818.183
  19.600  861.941
  19.700 1276.617
  19.800 1602.862
  19.900 2223.286
  20.000 2700.599
  20.100 2420.131
  20.200 1425.492
  20.300 1118.709
  20.400 1067.760
  20.500  886.276
  20.600  877.459
  20.700 1214.156
  20.800 1300.787
  20.900 1119.398
  21.000  798.118
  21.100  866.803
  21.200  752.348
  21.300  686.109
  21.400  891.138
  21.500  876.367
  21.600  929.491
  21.700  997.558
  21.800 1042.656
  21.900  907.520
  22.000  968.338
  22.100  806.002
  22.200  886.401
  22.300  875.596
  22.400  810.002
  22.500  921.954
  22.600 1041.843
  22.700  828.966
  22.800 1131.204
  22.900 1138.853
  23.000 1551.617
  23.100 1487.242
  23.200 1331.738
  23.300  931.498
  23.400  994.367
  23.500  954.394
  23.600  964.846
  23.700 1030.168
  23.800 1097.125
  23.900 1534.817
  24.000 1534.152
  24.100 1509.775
  24.200 1361.912
  24.300 1092.316
  24.400 1006.550
  24.500  813.273
  24.600  907.305
  24.700  737.197
  24.800  810.956
  24.900  847.824
  25.000 1001.354
  25.100  960.394
  25.200 1192.708
  25.300 1055.753
  25.400 1107.550
  25.500 1541.471
  25.600 1817.629
  25.700 1565.034
  25.800 1261.085
  25.900 1047.812
  26.000  787.465
  26.100  870.897
  26.200  753.441
  26.300  853.541
  26.400  859.977
  26.500 1048.752
  26.600 1457.113
  26.700 1872.781
  26.800 2371.346
  26.900 2332.560
  27.000 1821.686
  27.100 1245.402
  27.200 1003.557
  27.300 1086.603
  27.400  784.365
  27.500  835.381
  27.600  930.822
  27.700  921.898
  27.800 1049.662
  27.900 1486.509
  28.000 1739.952
  28.100 1491.896
  28.200 1214.030
  28.300  969.193
  28.400  816.341
  28.500  805.034
  28.600  941.456
  28.700 1022.367
  28.800  880.898
  28.900  844.510
  29.000  922.863
  29.100  830.384
  29.200  707.810
  29.300  724.681
  29.400  712.101
  29.500  731.867
  29.600  899.241
  29.700  787.068
  29.800  997.659
  29.900 1413.366
  30.000 1542.244
  30.100 1429.445
  30.200 1132.539
  30.300  920.340
  30.400  828.477
  30.500  680.347
  30.600  746.888
  30.700  613.612
  30.800  600.004
  30.900  675.534
  31.000  842.815
  31.100  860.505
  31.200 1229.283
  31.300 1507.204
  31.400 1593.339
  31.500 1402.749
  31.600 1450.498
  31.700 1325.861
  31.800 1250.669
  31.900 1108.842
  32.000  924.341
  32.100 1224.118
  32.200 1223.174
  32.300 1039.250
  32.400  905.821
  32.500  658.607
  32.600  679.322
  32.700  714.146
  32.800  805.505
  32.900  579.335
  33.000  750.326
  33.100  803.807
  33.200  633.601
  33.300  707.890
  33.400  775.694
  33.500  608.893
  33.600  726.068
  33.700  667.147
  33.800  659.531
  33.900  596.503
  34.000  779.811
  34.100  831.116
  34.200  884.161
  34.300  623.729
  34.400  680.668
  34.500  829.612
  34.600 1035.260
  34.700 1459.157
  34.800 1694.365
  34.900 1675.988
  35.000 2128.108
  35.100 2685.166
  35.200 2775.972
  35.300 2202.233
  35.400 1493.858
  35.500  896.254
  35.600  812.065
  35.700  825.904
  35.800  815.116
  35.900  850.941
  36.000  815.961
  36.100  884.656
  36.200  953.651
  36.300  934.477
  36.400  768.526
  36.500  906.504
  36.600 1193.408
  36.700 1061.892
  36.800  917.359
  36.900  863.666
  37.000  981.900
  37.100  750.200
  37.200  811.845
  37.300  831.414
  37.400  721.157
  37.500  876.472
  37.600 1036.340
  37.700 1017.706
  37.800 1114.781
  37.900 1292.397
  38.000 1125.992
  38.100  963.410
  38.200  839.204
  38.300  831.543
  38.400  802.369
  38.500  723.465
  38.600  533.141
  38.700  596.538
  38.800  728.449
  38.900  509.777
  39.000  688.027
  39.100  641.858
  39.200  747.833
  39.300  542.318
  39.400  646.592
  39.500  554.963
  39.600  719.553
  39.700  640.806
  39.800  532.893
  39.900  767.604
  40.000  595.925
  40.100  826.854
  40.200  851.389
  40.300 1006.058
  40.400  901.559
  40.500  880.327
  40.600  796.741
  40.700  759.574
  40.800  790.742
  40.900  967.136
  41.000  859.487
  41.100  794.617
  41.200  671.704
  41.300  722.354
  41.400  776.304
  41.500  870.946
  41.600  767.102
  41.700  735.006
  41.800  759.446
  41.900  750.793
  42.000  784.017
  42.100  834.560
  42.200  841.928
  42.300 1066.518
  42.400 1002.796
  42.500 1132.819
  42.600 1053.038
  42.700  953.502
  42.800  849.027
  42.900  727.296
  43.000  544.131
  43.100  656.771
  43.200  448.753
  43.300  453.178
  43.400  496.153
  43.500  520.476
  43.600  498.439
  43.700  458.375
  43.800  478.478
  43.900  687.332
  44.000  499.132