File: xrd_output/random_files/2M1-std-41.TXT
Sample
Comments
Filename	C:\WINDMAX\DATA\USERS\GEO\GEO_ER~1\Pyrenees\BULKMA~1\2M1-std2.raw
Goniometer	Ultima IV In-plane
Attachment	Auto sample changer (10 samples)
ScanningMode	2Theta/Theta
ScanningType	Continuos Scanning
X-Ray	40kV/44mA
DivSlit	2/3deg.
DivH.L.Slit	10mm
SctSlit	2/3deg.
RecSlit	0.3mm
Start	16
Stop	44
Step	0.02
Speed	0.3
Offset	0
  16.000  646.008
  16.100  766.960
  16.200  632.593
  16.300  629.763
  16.400  634.022
  16.500  546.571
  16.600  711.708
  16.700  630.631
  16.800  760.693
  16.900  597.633
  17.000  670.605
  17.100  566.159
  17.200  577.308
  17.300  728.445
  17.400  791.143
  17.500  712.354
  17.600  678.520
  17.700 1031.293
  17.800 1109.087
  17.900 1300.754
  18.000 1421.050
  18.100 1187.472
  18.200  883.733
  18.300  894.792
  18.400  730.137
  18.500  626.081
  18.600  634.755
  18.700  840.974
  18.800  880.600
  18.900  626.747
  19.000  589.512
  19.100  782.349
  19.200  714.496
  19.300  877.749
  19.400  636.515
  19.500  858.543
  19.600  863.911
  19.700 1266.181
  19.800 1465.318
  19.900 2083.889
  20.000 2770.335
  20.100 2235.119
  20.200 1476.644
  20.300 1102.853
  20.400 1022.400
  20.500  947.967
  20.600 1085.330
  20.700 1051.299
  20.800 1284.982
  20.900 1111.412
  21.000  947.754
  21.100  779.119
  21.200  866.829
  21.300  781.423
  21.400  729.140
  21.500  853.703
  21.600 1015.619
  21.700  986.806
  21.800 1060.435
  21.900  991.949
  22.000  789.122
  22.100  824.031
  22.200  723.127
  22.300  704.007
  22.400  927.949
  22.500  914.222
  22.600  940.837
  22.700  885.653
  22.800 1119.532
  22.900 1260.882
  23.000 1607.447
  23.100 1558.602
  23.200 1266.129
  23.300 1046.292
  23.400  863.889
  23.500  796.792
  23.600  834.949
  23.700 1050.703
  23.800 1057.155
  23.900 1311.086
  24.000 1520.682
  24.100 1400.538
  24.200 1312.877
  24.300 1140.007
  24.400  839.108
  24.500  815.126
  24.600  816.013
  24.700  935.413
  24.800  768.277
  24.900  894.109
  25.000  994.159
  25.100 1077.896
  25.200  987.492
  25.300 1125.296
  25.400 1132.433
  25.500 1433.204
  25.600 1805.903
  25.700 1562.740
  25.800 1383.108
  25.900 1020.365
  26.000  839.521
  26.100  902.170
  26.200  949.901
  26.300  804.032
  26.400 1066.197
  26.500 1082.298
  26.600 1340.925
  26.700 1932.702
  26.800 2216.074
  26.900 2450.973
  27.000 1934.438
  27.100 1326.077
  27.200  980.076
  27.300  906.921
  27.400 1023.950
  27.500  861.070
  27.600  857.472
  27.700 1097.977
  27.800 1277.076
  27.900 1430.791
  28.000 1596.899
  28.100 1525.251
  28.200 1152.052
  28.300 1077.842
  28.400  832.027
  28.500  982.606
  28.600  992.956
  28.700  947.829
  28.800  975.164
  28.900  970.446
  29.000  743.533
  29.100  780.146
  29.200  664.196
  29.300  610.657
  29.400  674.992
  29.500  708.330
  29.600  761.839
  29.700  991.033
  29.800 1104.937
  29.900 1444.930
  30.000 1606.765
  30.100 1501.998
  30.200 1206.688
  30.300  921.356
  30.400  849.680
  30.500  804.668
  30.600  814.625
  30.700  666.306
  30.800  849.485
  30.900  829.621
  31.000  777.120
  31.100 1065.070
  31.200 1254.840
  31.300 1516.364
  31.400 1473.457
  31.500 1420.445
  31.600 1362.383
  31.700 1312.440
  31.800 1441.555
  31.900 1266.911
  32.000 1053.970
  32.100 1138.102
  32.200 1047.044
  32.300 1102.212
  32.400  831.395
  32.500  850.306
  32.600  713.712
  32.700  763.608
  32.800  626.947
  32.900  695.964
  33.000  674.415
  33.100  567.289
  33.200  627.380
  33.300  635.673
  33.400  597.844
  33.500  664.589
  33.600  558.752
  33.700  701.019
  33.800  734.835
  33.900  558.067
  34.000  601.352
  34.100  833.570
  34.200  726.719
  34.300  679.633
  34.400  910.352
  34.500  931.422
  34.600 1068.006
  34.700 1565.893
  34.800 1693.103
  34.900 1886.651
  35.000 2024.917
  35.100 2669.840
  35.200 2685.326
  35.300 2072.840
  35.400 1424.643
  35.500 1115.563
  35.600  865.567
  35.700  689.317
  35.800  893.016
  35.900  743.135
  36.000  898.123
  36.100  858.656
  36.200  924.039
  36.300  757.060
  36.400  785.015
  36.500  964.503
  36.600  985.922
  36.700 1180.963
  36.800 1104.233
  36.900  848.157
  37.000  975.240
  37.100  807.545
  37.200  665.060
  37.300  768.259
  37.400  935.393
  37.500  932.076
  37.600  924.820
  37.700 1082.621
  37.800 1111.508
  37.900 1294.909
  38.000 1154.324
  38.100 1102.334
  38.200  773.492
  38.300  716.419
  38.400  874.072
  38.500  617.556
  38.600  508.497
  38.700  547.232
  38.800  699.842
  38.900  541.484
  39.000  725.636
  39.100  553.472
  39.200  751.428
  39.300  737.936
  39.400  595.176
  39.500  559.667
  39.600  637.463
  39.700  524.803
  39.800  586.520
  39.900  545.431
  40.000  799.297
  40.100  874.038
  40.200  954.406
  40.300  901.356
  40.400  969.546
  40.500  918.704
  40.600  886.733
  40.700  668.299
  40.800  850.168
  40.900  806.820
  41.000  874.730
  41.100  730.180
  41.200  875.943
  41.300  842.498
  41.400  803.669
  41.500  858.434
  41.600  779.073
  41.700  818.493
  41.800  549.854
  41.900  732.831
  42.000  746.176
  42.100  882.650
  42.200 1015.572
  42.300  903.327
  42.400  995.627
  42.500  951.406
  42.600  981.875
  42.700  895.974
  42.800  730.998
  42.900  793.836
  43.000  669.507
  43.100  554.014
  43.200  554.853
  43.300  460.924
  43.400  583.030
  43.500  461.172
  43.600  642.309
  43.700  444.717
  43.800  682.108
  43.900  676.902
  44.000  671.932