File: xrd_output/random_files/2M1-std-45.TXT
Sample
Comments
Filename	C:\WINDMAX\DATA\USERS\GEO\GEO_ER~1\Pyrenees\BULKMA~1\2M1-std2.raw
Goniometer	Ultima IV In-plane
Attachment	Auto sample changer (10 samples)
ScanningMode	2Theta/Theta
ScanningType	Continuos Scanning
X-Ray	40kV/44mA
DivSlit	2/3deg.
DivH.L.Slit	10mm
SctSlit	2/3deg.
RecSlit	0.3mm
Start	16
Stop	44
Step	0.02
Speed	0.3
Offset	0
  16.000  724.900
  16.100  791.019
  16.200  614.731
  16.300  658.714
  16.400  587.887
  16.500  764.980
  16.600  599.930
  16.700  604.009
  16.800  599.239
  16.900  625.941
  17.000  600.290
  17.100  660.272
  17.200  583.314
  17.300  703.767
  17.400  692.821
  17.500  608.276
  17.600  858.151
  17.700 1031.566
  17.800 1201.853
  17.900 1323.177
  18.000 1256.597
  18.100 1222.462
  18.200  924.873
  18.300  674.870
  18.400  858.582
  18.500  615.350
  18.600  664.357
  18.700  690.072
  18.800  736.195
  18.900  698.915
  19.000  563.456
  19.100  587.242
  19.200  688.627
  19.300  670.940
  19.400  792.068
  19.500  911.360
  19.600  804.903
  19.700 1154.827
  19.800 1593.639
  19.900 2310.050
  20.000 2650.371
  20.100 2337.550
  20.200 1588.045
  20.300 1071.771
  20.400  971.792
  20.500  986.545
  20.600 1034.920
  20.700 1081.684
  20.800 1275.748
  20.900 1193.917
  21.000  772.353
  21.100  890.503
  21.200  905.798
  21.300  882.808
  21.400  799.280
  21.500  955.708
  21.600  922.133
  21.700 1164.843
  21.800  955.036
  21.900  813.335
  22.000  746.207
  22.100  715.723
  22.200  690.201
  22.300  896.222
  22.400  847.923
  22.500  998.374
  22.600 1039.654
  22.700  799.613
  22.800  939.235
  22.900 1126.518
  23.000 1648.060
  23.100 1621.428
  23.200 1330.275
  23.300 1164.463
  23.400  965.489
  23.500  889.233
  23.600  897.275
  23.700 1135.089
  23.800 1244.907
  23.900 1430.592
  24.000 1473.946
  24.100 1572.637
  24.200 1362.993
  24.300  984.066
  24.400  993.560
  24.500  752.740
  24.600  833.008
  24.700  805.276
  24.800  857.981
  24.900  881.462
  25.000  827.822
  25.100 1005.577
  25.200 1112.184
  25.300 1106.605
  25.400 1101.517
  25.500 1351.287
  25.600 1642.534
  25.700 1669.364
  25.800 1257.639
  25.900  939.468
  26.000 1036.882
  26.100  952.048
  26.200  820.235
  26.300  911.099
  26.400  959.381
  26.500 1017.344
  26.600 1440.043
  26.700 1757.605
  26.800 2155.196
  26.900 2386.131
  27.000 1987.208
  27.100 1491.732
  27.200 1194.247
  27.300 1052.844
  27.400  780.267
  27.500  895.867
  27.600  892.783
  27.700  953.269
  27.800 1233.347
  27.900 1408.603
  28.000 1680.325
  28.100 1567.785
  28.200 1299.129
  28.300 1114.282
  28.400  879.748
  28.500  784.181
  28.600  986.770
  28.700 1058.387
  28.800  826.390
  28.900  874.974
  29.000  757.732
  29.100  936.120
  29.200  792.405
  29.300  663.474
  29.400  806.240
  29.500  718.631
  29.600  888.371
  29.700  970.759
  29.800  958.748
  29.900 1443.965
  30.000 1669.279
  30.100 1298.046
  30.200 1194.920
  30.300  808.187
  30.400  793.046
  30.500  802.985
  30.600  737.328
  30.700  739.697
  30.800  626.728
  30.900  736.825
  31.000  812.812
  31.100 1079.916
  31.200 1087.856
  31.300 1323.313
  31.400 1544.299
  31.500 1558.454
  31.600 1351.198
  31.700 1409.443
  31.800 1235.400
  31.900 1188.752
  32.000  923.535
  32.100 1009.835
  32.200 1202.711
  32.300  952.908
  32.400  970.480
  32.500  678.305
  32.600  754.883
  32.700  645.473
  32.800  626.656
  32.900  575.926
  33.000  700.959
  33.100  627.096
  33.200  720.244
  33.300  735.406
  33.400  699.187
  33.500  638.496
  33.600  499.406
  33.700  787.250
  33.800  561.416
  33.900  760.472
  34.000  638.881
  34.100  717.209
  34.200  881.443
  34.300  604.131
  34.400  783.804
  34.500  923.859
  34.600 1165.930
  34.700 1606.401
  34.800 1617.038
  34.900 1873.164
  35.000 2105.264
  35.100 2547.424
  35.200 2683.052
  35.300 2188.131
  35.400 1457.770
  35.500  911.225
  35.600  907.234
  35.700  874.490
  35.800  741.496
  35.900  809.541
  36.000  953.136
  36.100  823.911
  36.200  843.160
  36.300  755.619
  36.400  830.189
  36.500 1053.716
  36.600 1116.123
  36.700 1180.851
  36.800 1107.130
  36.900 1073.332
  37.000  991.349
  37.100  680.630
  37.200  792.989
  37.300  691.055
  37.400  799.079
  37.500  743.278
  37.600  894.219
  37.700  921.020
  37.800 1196.192
  37.900 1290.209
  38.000 1123.283
  38.100 1065.149
  38.200  916.738
  38.300  913.884
  38.400  726.284
  38.500  579.191
  38.600  758.589
  38.700  590.685
  38.800  492.368
  38.900  583.689
  39.000  582.876
  39.100  712.085
  39.200  556.115
  39.300  647.607
  39.400  608.711
  39.500  622.406
  39.600  558.394
  39.700  635.177
  39.800  656.118
  39.900  549.539
  40.000  660.663
  40.100  816.430
  40.200  737.349
  40.300  861.615
  40.400  876.235
  40.500  866.379
  40.600  766.225
  40.700  720.831
  40.800  857.201
  40.900  998.962
  41.000  848.011
  41.100  832.139
  41.200  740.295
  41.300  898.658
  41.400  732.570
  41.500  697.836
  41.600  873.615
  41.700  608.778
  41.800  774.795
  41.900  611.014
  42.000  772.412
  42.100  792.407
  42.200  961.352
  42.300  904.395
  42.400 1096.506
  42.500  936.787
  42.600  924.691
  42.700 1019.760
  42.800  778.320
  42.900  679.020
  43.000  695.264
  43.100  489.466
  43.200  609.983
  43.300  438.965
  43.400  668.259
  43.500  446.435
  43.600  494.818
  43.700  553.228
  43.800  651.757
  43.900  577.043
  44.000  650.820