File: xrd_output/random_files/2M1-std-22.TXT
Sample
Comments
Filename	C:\WINDMAX\DATA\USERS\GEO\GEO_ER~1\Pyrenees\BULKMA~1\2M1-std2.raw
Goniometer	Ultima IV In-plane
Attachment	Auto sample changer (10 samples)
ScanningMode	2Theta/Theta
ScanningType	Continuos Scanning
X-Ray	40kV/44mA
DivSlit	2/3deg.
DivH.L.Slit	10mm
SctSlit	2/3deg.
RecSlit	0.3mm
Start	16
Stop	44
Step	0.02
Speed	0.3
Offset	0
  16.000  735.504
  16.100  650.868
  16.200  751.897
  16.300  720.970
  16.400  602.249
  16.500  568.367
  16.600  517.151
  16.700  620.344
  16.800  771.317
  16.900  755.584
  17.000  530.274
  17.100  684.779
  17.200  517.582
  17.300  593.335
  17.400  807.241
  17.500  802.999
  17.600  743.615
  17.700  910.752
  17.800 1078.009
  17.900 1478.371
  18.000 1434.586
  18.100 1100.418
  18.200  840.335
  18.300  886.211
  18.400  820.531
  18.500  795.302
  18.600  783.695
  18.700  870.573
  18.800  777.882
  18.900  736.954
  19.000  653.840
  19.100  780.340
  19.200  646.183
  19.300  692.054
  19.400  805.699
  19.500  877.000
  19.600  966.160
  19.700 1277.215
  19.800 1478.235
  19.900 2139.612
  20.000 2629.911
  20.100 2378.266
  20.200 1574.101
  20.300 1247.449
  20.400 1092.333
  20.500 1049.987
  20.600  979.351
  20.700 1149.217
  20.800 1159.342
  20.900 1212.625
  21.000 1031.507
  21.100  736.962
  21.200  848.577
  21.300  751.734
  21.400  902.464
  21.500 1033.996
  21.600  962.658
  21.700 1192.512
  21.800 1145.030
  21.900 1066.934
  22.000  766.464
  22.100  864.178
  22.200  671.245
  22.300  862.692
  22.400  927.471
  22.500  888.425
  22.600  975.387
  22.700  846.156
  22.800 1152.434
  22.900 1189.293
  23.000 1644.582
  23.100 1640.600
  23.200 1444.219
  23.300  919.189
  23.400  778.122
  23.500  898.262
  23.600  858.132
  23.700  944.233
  23.800 1072.704
  23.900 1483.079
  24.000 1625.728
  24.100 1412.830
  24.200 1338.049
  24.300  975.339
  24.400  922.767
  24.500  891.408
  24.600  872.166
  24.700  904.143
  24.800  800.848
  24.900  828.512
  25.000  828.127
  25.100 1004.894
  25.200 1197.717
  25.300 1214.095
  25.400 1274.383
  25.500 1551.773
  25.600 1801.221
  25.700 1710.730
  25.800 1201.740
  25.900 1136.246
  26.000  832.211
  26.100  933.343
  26.200  751.490
  26.300  881.621
  26.400 1069.170
  26.500 1105.446
  26.600 1462.713
  26.700 1778.311
  26.800 2175.653
  26.900 2274.794
  27.000 1769.232
  27.100 1345.489
  27.200 1044.585
  27.300  885.304
  27.400  878.229
  27.500  827.028
  27.600 1004.675
  27.700 1029.776
  27.800 1239.425
  27.900 1358.442
  28.000 1657.891
  28.100 1611.155
  28.200 1186.544
  28.300 1193.579
  28.400  824.861
  28.500  825.799
  28.600  878.497
  28.700  863.790
  28.800  974.421
  28.900  958.970
  29.000  776.923
  29.100  716.053
  29.200  726.677
  29.300  788.082
  29.400  704.535
  29.500  863.793
  29.600  902.319
  29.700  866.371
  29.800 1173.598
  29.900 1209.291
  30.000 1492.677
  30.100 1384.152
  30.200 1118.513
  30.300  772.826
  30.400  908.409
  30.500  765.728
  30.600  673.990
  30.700  619.855
  30.800  625.740
  30.900  745.874
  31.000  830.627
  31.100  925.541
  31.200 1130.549
  31.300 1403.701
  31.400 1632.390
  31.500 1496.059
  31.600 1413.265
  31.700 1393.251
  31.800 1476.815
  31.900 1191.491
  32.000  929.565
  32.100 1211.321
  32.200 1248.347
  32.300 1117.732
  32.400  720.419
  32.500  637.002
  32.600  751.196
  32.700  787.399
  32.800  601.385
  32.900  708.936
  33.000  688.698
  33.100  560.922
  33.200  596.876
  33.300  593.243
  33.400  759.361
  33.500  712.551
  33.600  726.786
  33.700  557.380
  33.800  625.750
  33.900  600.340
  34.000  600.065
  34.100  651.365
  34.200  792.389
  34.300  807.530
  34.400  790.170
  34.500  980.216
  34.600 1203.495
  34.700 1520.355
  34.800 1706.710
  34.900 1816.864
  35.000 2071.647
  35.100 2699.389
  35.200 2907.787
  35.300 2111.892
  35.400 1412.448
  35.500 1048.160
  35.600  946.878
  35.700  704.785
  35.800  664.233
  35.900  952.003
  36.000  840.001
  36.100  934.609
  36.200  985.912
  36.300  709.348
  36.400  935.579
  36.500 1060.110
  36.600  988.990
  36.700  955.422
  36.800 1120.360
  36.900  838.163
  37.000  951.391
  37.100  870.830
  37.200  864.121
  37.300  695.600
  37.400  894.933
  37.500  823.946
  37.600  878.683
  37.700  982.535
  37.800 1241.620
  37.900 1165.646
  38.000 1151.572
  38.100 1045.355
  38.200  777.152
  38.300  810.478
  38.400  630.465
  38.500  726.838
  38.600  680.703
  38.700  484.485
  38.800  717.479
  38.900  592.206
  39.000  661.062
  39.100  695.951
  39.200  614.398
  39.300  555.815
  39.400  732.168
  39.500  480.106
  39.600  525.573
  39.700  633.455
  39.800  694.635
  39.900  704.839
  40.000  710.159
  40.100  832.589
  40.200  936.425
  40.300  756.985
  40.400  738.449
  40.500  853.445
  40.600  766.551
  40.700  802.040
  40.800  879.846
  40.900  905.965
  41.000  874.336
  41.100  866.853
  41.200  885.867
  41.300  691.168
  41.400  862.613
  41.500  761.222
  41.600  844.758
  41.700  624.856
  41.800  567.483
  41.900  727.845
  42.000  864.770
  42.100  784.809
  42.200  794.800
  42.300  842.193
  42.400 1025.332
  42.500 1137.927
  42.600  993.382
  42.700  918.512
  42.800  822.820
  42.900  544.771
  43.000  723.266
  43.100  587.649
  43.200  609.667
  43.300  519.384
  43.400  541.057
  43.500  640.659
  43.600  470.519
  43.700  534.914
  43.800  465.832
  43.900  617.164
  44.000  682.449