File: xrd_output/random_files/2M1-std-23.TXT
Sample
Comments
Filename	C:\WINDMAX\DATA\USERS\GEO\GEO_ER~1\Pyrenees\BULKMA~1\2M1-std2.raw
Goniometer	Ultima IV In-plane
Attachment	Auto sample changer (10 samples)
ScanningMode	2Theta/Theta
ScanningType	Continuos Scanning
X-Ray	40kV/44mA
DivSlit	2/3deg.
DivH.L.Slit	10mm
SctSlit	2/3deg.
RecSlit	0.3mm
Start	16
Stop	44
Step	0.02
Speed	0.3
Offset	0
  16.000  636.310
  16.100  626.679
  16.200  587.828
  16.300  745.990
  16.400  748.417
  16.500  617.563
  16.600  528.224
  16.700  645.782
  16.800  673.243
  16.900  546.844
  17.000  630.296
  17.100  741.328
  17.200  702.941
  17.300  699.457
  17.400  636.145
  17.500  693.374
  17.600  769.066
  17.700 1016.757
  17.800 1187.081
  17.900 1459.315
  18.000 1261.081
  18.100 1160.234
  18.200  914.811
  18.300  654.804
  18.400  863.035
  18.500  614.157
  18.600  776.052
  18.700  660.050
  18.800  812.132
  18.900  701.179
  19.000  680.915
  19.100  644.464
  19.200  815.014
  19.300  645.119
  19.400  734.988
  19.500  782.595
  19.600  821.710
  19.700 1053.804
  19.800 1504.698
  19.900 2082.408
  20.000 2793.189
  20.100 2423.928
  20.200 1379.238
  20.300 1202.900
  20.400 1007.338
  20.500 1008.546
  20.600 1097.502
  20.700 1006.678
  20.800 1299.910
  20.900 1050.813
  21.000  891.394
  21.100  892.019
  21.200  864.862
  21.300  765.231
  21.400  723.071
  21.500 1017.128
  21.600 1039.714
  21.700 1089.949
  21.800  934.213
  21.900  824.989
  22.000  881.640
  22.100  931.034
  22.200  901.641
  22.300  952.713
  22.400  941.016
  22.500  900.684
  22.600  913.759
  22.700  904.994
  22.800  924.315
  22.900 1226.187
  23.000 1599.904
  23.100 1717.678
  23.200 1234.259
  23.300  940.955
  23.400  798.694
  23.500  778.852
  23.600 1017.366
  23.700  898.232
  23.800 1252.864
  23.900 1408.835
  24.000 1476.341
  24.100 1384.377
  24.200 1199.357
  24.300 1178.090
  24.400  918.456
  24.500  777.521
  24.600  775.039
  24.700  761.123
  24.800  864.712
  24.900  796.118
  25.000 1034.518
  25.100  887.498
  25.200 1029.201
  25.300 1172.161
  25.400 1196.150
  25.500 1404.473
  25.600 1604.436
  25.700 1599.315
  25.800 1172.805
  25.900 1099.760
  26.000  799.924
  26.100  832.986
  26.200  948.979
  26.300  894.241
  26.400 1065.673
  26.500 1223.866
  26.600 1389.012
  26.700 1860.442
  26.800 2280.130
  26.900 2221.902
  27.000 1950.872
  27.100 1277.774
  27.200  987.179
  27.300 1082.008
  27.400  975.803
  27.500  873.396
  27.600 1073.977
  27.700 1038.457
  27.800 1163.946
  27.900 1546.794
  28.000 1621.731
  28.100 1503.528
  28.200 1252.819
  28.300 1019.026
  28.400  891.308
  28.500  798.284
  28.600  995.853
  28.700 1058.166
  28.800 1005.164
  28.900  889.192
  29.000  960.513
  29.100  954.585
  29.200  869.414
  29.300  769.515
  29.400  811.154
  29.500  782.084
  29.600  702.722
  29.700  843.492
  29.800 1012.335
  29.900 1442.082
  30.000 1611.067
  30.100 1430.908
  30.200 1270.227
  30.300  773.167
  30.400  868.945
  30.500  730.669
  30.600  678.934
  30.700  615.464
  30.800  762.252
  30.900  747.184
  31.000  932.697
  31.100 1012.945
  31.200 1144.473
  31.300 1358.034
  31.400 1581.808
  31.500 1421.026
  31.600 1360.234
  31.700 1478.250
  31.800 1224.665
  31.900 1193.277
  32.000 1040.194
  32.100 1011.129
  32.200 1095.956
  32.300 1054.869
  32.400  915.196
  32.500  726.575
  32.600  670.638
  32.700  793.579
  32.800  569.824
  32.900  800.846
  33.000  748.859
  33.100  654.448
  33.200  573.314
  33.300  749.648
  33.400  538.362
  33.500  723.837
  33.600  615.214
  33.700  575.924
  33.800  599.748
  33.900  721.214
  34.000  612.921
  34.100  784.785
  34.200  672.278
  34.300  760.534
  34.400  710.378
  34.500  946.395
  34.600 1141.684
  34.700 1558.867
  34.800 1705.014
  34.900 1884.820
  35.000 2125.129
  35.100 2542.974
  35.200 2795.709
  35.300 2028.048
  35.400 1361.587
  35.500  987.133
  35.600  926.161
  35.700  910.217
  35.800  855.711
  35.900  809.443
  36.000  773.256
  36.100  889.042
  36.200  968.846
  36.300  731.266
  36.400  811.040
  36.500  959.446
  36.600 1173.171
  36.700 1084.393
  36.800 1088.848
  36.900 1005.588
  37.000  996.741
  37.100  685.148
  37.200  844.083
  37.300  645.793
  37.400  709.945
  37.500  865.581
  37.600  897.332
  37.700 1100.199
  37.800 1119.516
  37.900 1136.167
  38.000 1066.974
  38.100 1121.282
  38.200  925.612
  38.300  718.866
  38.400  650.615
  38.500  602.148
  38.600  589.843
  38.700  701.869
  38.800  658.225
  38.900  576.777
  39.000  588.091
  39.100  681.967
  39.200  620.926
  39.300  738.186
  39.400  676.421
  39.500  622.983
  39.600  594.297
  39.700  507.127
  39.800  548.798
  39.900  541.691
  40.000  774.612
  40.100  757.217
  40.200  928.631
  40.300  856.397
  40.400  840.102
  40.500  922.327
  40.600  696.624
  40.700  771.446
  40.800  877.823
  40.900  793.589
  41.000  863.001
  41.100  892.519
  41.200  742.311
  41.300  871.439
  41.400  698.216
  41.500  799.644
  41.600  618.987
  41.700  584.626
  41.800  761.646
  41.900  823.082
  42.000  708.701
  42.100  783.416
  42.200  865.930
  42.300 1076.269
  42.400 1062.123
  42.500 1086.229
  42.600 1013.696
  42.700  941.964
  42.800  756.944
  42.900  535.605
  43.000  739.691
  43.100  668.270
  43.200  492.696
  43.300  566.746
  43.400  501.453
  43.500  532.670
  43.600  529.083
  43.700  661.361
  43.800  609.951
  43.900  579.950
  44.000  612.270