File: xrd_output/random_files/2M1-std-26.TXT
Sample
Comments
Filename	C:\WINDMAX\DATA\USERS\GEO\GEO_ER~1\Pyrenees\BULKMA~1\2M1-std2.raw
Goniometer	Ultima IV In-plane
Attachment	Auto sample changer (10 samples)
ScanningMode	2Theta/Theta
ScanningType	Continuos Scanning
X-Ray	40kV/44mA
DivSlit	2/3deg.
DivH.L.Slit	10mm
SctSlit	2/3deg.
RecSlit	0.3mm
Start	16
Stop	44
Step	0.02
Speed	0.3
Offset	0
  16.000  608.613
  16.100  753.379
  16.200  632.552
  16.300  686.222
  16.400  621.125
  16.500  695.588
  16.600  719.494
  16.700  608.178
  16.800  525.996
  16.900  553.953
  17.000  674.722
  17.100  581.388
  17.200  585.470
  17.300  668.764
  17.400  790.532
  17.500  808.624
  17.600  768.014
  17.700  921.334
  17.800 1146.162
  17.900 1232.338
  18.000 1417.075
  18.100 1170.972
  18.200 1059.203
  18.300  857.325
  18.400  847.084
  18.500  781.963
  18.600  767.821
  18.700  756.371
  18.800  729.314
  18.900  753.652
  19.000  736.063
  19.100  714.314
  19.200  676.577
  19.300  733.000
  19.400  737.727
  19.500  826.816
  19.600 1037.680
  19.700 1129.738
  19.800 1426.410
  19.900 2189.249
  20.000 2706.481
  20.100 2307.456
  20.200 1580.578
  20.300 1222.949
  20.400 1021.867
  20.500 1040.314
  20.600 1013.305
  20.700 1223.092
  20.800 1223.919
  20.900 1059.259
  21.000  889.288
  21.100  811.736
  21.200  772.460
  21.300  767.099
  21.400  862.704
  21.500 1042.277
  21.600  996.465
  21.700  985.691
  21.800 1032.900
  21.900  943.266
  22.000  890.734
  22.100  762.539
  22.200  834.966
  22.300  866.803
  22.400  871.242
  22.500  788.435
  22.600  880.288
  22.700  846.272
  22.800 1093.680
  22.900 1256.240
  23.000 1429.205
  23.100 1613.513
  23.200 1287.635
  23.300 1119.818
  23.400  919.030
  23.500  744.160
  23.600  919.392
  23.700  983.650
  23.800 1282.248
  23.900 1325.292
  24.000 1513.623
  24.100 1411.704
  24.200 1403.967
  24.300 1016.867
  24.400  884.867
  24.500  855.055
  24.600  923.143
  24.700  844.726
  24.800  825.667
  24.900  770.672
  25.000  832.147
  25.100 1025.177
  25.200 1193.740
  25.300 1176.043
  25.400 1291.964
  25.500 1472.897
  25.600 1739.340
  25.700 1629.581
  25.800 1282.732
  25.900 1092.037
  26.000  829.568
  26.100  790.193
  26.200  943.862
  26.300  842.629
  26.400 1027.758
  26.500 1081.416
  26.600 1430.029
  26.700 1725.583
  26.800 2205.197
  26.900 2235.299
  27.000 1805.555
  27.100 1248.520
  27.200  992.687
  27.300 1072.654
  27.400  892.379
  27.500  920.737
  27.600  842.571
  27.700 1001.807
  27.800 1059.889
  27.900 1534.181
  28.000 1716.171
  28.100 1622.511
  28.200 1311.710
  28.300  983.258
  28.400  864.313
  28.500  870.887
  28.600  843.683
  28.700  982.426
  28.800  882.151
  28.900 1001.103
  29.000  793.399
  29.100  784.544
  29.200  816.900
  29.300  834.077
  29.400  672.404
  29.500  822.273
  29.600  742.167
  29.700  886.548
  29.800 1083.701
  29.900 1409.166
  30.000 1674.465
  30.100 1346.935
  30.200 1149.594
  30.300  881.693
  30.400  718.584
  30.500  851.958
  30.600  747.589
  30.700  687.044
  30.800  716.834
  30.900  627.801
  31.000  906.102
  31.100  850.020
  31.200 1122.747
  31.300 1500.549
  31.400 1501.456
  31.500 1501.806
  31.600 1445.796
  31.700 1309.339
  31.800 1408.149
  31.900 1221.314
  32.000  954.905
  32.100 1199.205
  32.200 1132.845
  32.300  971.092
  32.400  786.696
  32.500  697.485
  32.600  671.893
  32.700  617.874
  32.800  807.554
  32.900  651.991
  33.000  646.323
  33.100  611.952
  33.200  638.626
  33.300  664.828
  33.400  696.062
  33.500  554.277
  33.600  517.983
  33.700  733.413
  33.800  711.853
  33.900  759.643
  34.000  619.965
  34.100  773.175
  34.200  875.426
  34.300  835.143
  34.400  775.985
  34.500  939.209
  34.600 1097.866
  34.700 1630.039
  34.800 1712.181
  34.900 1725.222
  35.000 2090.598
  35.100 2734.340
  35.200 2797.082
  35.300 2103.552
  35.400 1330.288
  35.500 1121.464
  35.600  763.326
  35.700  748.888
  35.800  898.903
  35.900  952.754
  36.000  952.372
  36.100  771.585
  36.200  952.544
  36.300  838.618
  36.400  793.292
  36.500  999.408
  36.600 1071.124
  36.700 1079.698
  36.800  909.011
  36.900 1066.694
  37.000  906.037
  37.100  810.790
  37.200  705.749
  37.300  742.720
  37.400  924.789
  37.500  924.120
  37.600  834.388
  37.700  908.810
  37.800 1218.597
  37.900 1091.259
  38.000 1137.058
  38.100  951.670
  38.200  997.714
  38.300  715.325
  38.400  686.817
  38.500  796.112
  38.600  562.985
  38.700  552.684
  38.800  668.896
  38.900  672.397
  39.000  625.184
  39.100  613.838
  39.200  733.939
  39.300  666.981
  39.400  542.613
  39.500  632.188
  39.600  585.470
  39.700  722.161
  39.800  596.974
  39.900  612.496
  40.000  785.446
  40.100  709.830
  40.200  956.859
  40.300  849.994
  40.400  952.166
  40.500  913.794
  40.600  832.131
  40.700  732.305
  40.800  705.175
  40.900  808.809
  41.000  797.159
  41.100  900.977
  41.200  790.834
  41.300  793.051
  41.400  917.867
  41.500  889.856
  41.600  749.801
  41.700  829.054
  41.800  605.438
  41.900  698.761
  42.000  680.650
  42.100  833.264
  42.200  901.554
  42.300  951.418
  42.400 1091.646
  42.500 1052.069
  42.600  933.568
  42.700 1078.489
  42.800  664.465
  42.900  545.138
  43.000  566.752
  43.100  682.848
  43.200  544.527
  43.300  674.805
  43.400  583.323
  43.500  438.135
  43.600  556.107
  43.700  666.172
  43.800  703.551
  43.900  538.363
  44.000  605.911