File: xrd_output/random_files/2M1-std-11.TXT
Sample
Comments
Filename	C:\WINDMAX\DATA\USERS\GEO\GEO_ER~1\Pyrenees\BULKMA~1\2M1-std2.raw
Goniometer	Ultima IV In-plane
Attachment	Auto sample changer (10 samples)
ScanningMode	2Theta/Theta
ScanningType	Continuos Scanning
X-Ray	40kV/44mA
DivSlit	2/3deg.
DivH.L.Slit	10mm
SctSlit	2/3deg.
RecSlit	0.3mm
Start	16
Stop	44
Step	0.02
Speed	0.3
Offset	0
  16.000  567.595
  16.100  738.528
  16.200  779.949
  16.300  707.869
  16.400  628.932
  16.500  680.609
  16.600  728.474
  16.700  579.525
  16.800  552.913
  16.900  579.198
  17.000  632.837
  17.100  675.557
  17.200  713.337
  17.300  656.992
  17.400  684.177
  17.500  691.894
  17.600  750.268
  17.700  968.409
  17.800 1119.675
  17.900 1292.558
  18.000 1252.682
  18.100 1036.626
  18.200  861.524
  18.300  879.591
  18.400  810.171
  18.500  837.041
  18.600  685.819
  18.700  786.922
  18.800  699.843
  18.900  834.483
  19.000  674.710
  19.100  779.499
  19.200  641.775
  19.300  839.949
  19.400  772.502
  19.500  857.620
  19.600 1048.073
  19.700 1173.723
  19.800 1409.688
  19.900 2177.022
  20.000 2722.360
  20.100 2470.728
  20.200 1513.704
  20.300 1247.565
  20.400 1011.817
  20.500  894.632
  20.600 1023.511
  20.700 1150.629
  20.800 1188.074
  20.900  981.030
  21.000  866.153
  21.100  714.802
  21.200  775.368
  21.300  772.110
  21.400  726.567
  21.500  910.667
  21.600 1163.294
  21.700 1198.817
  21.800  934.225
  21.900 1022.677
  22.000  923.494
  22.100  723.604
  22.200  735.835
  22.300  698.990
  22.400  834.995
  22.500 1030.905
  22.600  908.778
  22.700  948.193
  22.800 1034.273
  22.900 1122.237
  23.000 1469.180
  23.100 1654.275
  23.200 1283.297
  23.300 1162.155
  23.400  805.143
  23.500  761.612
  23.600  793.452
  23.700 1046.494
  23.800 1209.624
  23.900 1422.997
  24.000 1613.624
  24.100 1390.550
  24.200 1298.744
  24.300 1104.573
  24.400  961.532
  24.500  785.929
  24.600  856.086
  24.700  900.169
  24.800  938.771
  24.900  778.533
  25.000  844.866
  25.100 1042.375
  25.200  980.039
  25.300 1244.788
  25.400 1180.054
  25.500 1499.178
  25.600 1782.655
  25.700 1599.778
  25.800 1302.095
  25.900  886.964
  26.000  925.567
  26.100  852.289
  26.200  945.447
  26.300  910.134
  26.400 1089.985
  26.500 1076.118
  26.600 1276.290
  26.700 1756.904
  26.800 2197.416
  26.900 2374.100
  27.000 1945.010
  27.100 1312.380
  27.200 1128.466
  27.300  920.555
  27.400  961.387
  27.500 1025.794
  27.600  903.829
  27.700 1134.273
  27.800 1131.780
  27.900 1489.464
  28.000 1695.946
  28.100 1560.631
  28.200 1270.587
  28.300 1191.749
  28.400  947.469
  28.500  978.418
  28.600  930.255
  28.700  815.409
  28.800  781.377
  28.900  812.598
  29.000  762.067
  29.100  884.012
  29.200  887.294
  29.300  826.151
  29.400  620.775
  29.500  695.840
  29.600  826.320
  29.700  988.872
  29.800 1026.940
  29.900 1438.625
  30.000 1574.573
  30.100 1356.371
  30.200 1167.763
  30.300  848.452
  30.400  889.125
  30.500  722.490
  30.600  593.862
  30.700  674.866
  30.800  729.921
  30.900  682.464
  31.000  832.126
  31.100  940.454
  31.200 1182.378
  31.300 1549.493
  31.400 1509.887
  31.500 1539.387
  31.600 1377.788
  31.700 1409.563
  31.800 1409.498
  31.900 1256.313
  32.000  909.846
  32.100 1032.390
  32.200 1038.721
  32.300  981.036
  32.400  965.228
  32.500  811.631
  32.600  804.012
  32.700  576.439
  32.800  560.876
  32.900  659.718
  33.000  719.967
  33.100  731.145
  33.200  693.060
  33.300  707.557
  33.400  692.960
  33.500  705.102
  33.600  531.706
  33.700  570.234
  33.800  600.629
  33.900  610.727
  34.000  707.322
  34.100  653.962
  34.200  636.529
  34.300  824.754
  34.400  792.790
  34.500  948.203
  34.600 1159.367
  34.700 1436.916
  34.800 1747.163
  34.900 1809.975
  35.000 1982.326
  35.100 2649.091
  35.200 2717.366
  35.300 2048.374
  35.400 1439.925
  35.500  971.934
  35.600  871.742
  35.700  827.588
  35.800  835.070
  35.900  870.009
  36.000  811.766
  36.100  897.222
  36.200  754.008
  36.300  901.148
  36.400  794.794
  36.500 1062.117
  36.600 1218.144
  36.700  950.550
  36.800  908.044
  36.900 1028.994
  37.000  825.202
  37.100  797.252
  37.200  735.470
  37.300  855.708
  37.400  869.932
  37.500  804.371
  37.600  867.946
  37.700 1130.798
  37.800 1121.205
  37.900 1157.215
  38.000 1116.060
  38.100  907.134
  38.200  988.756
  38.300  728.978
  38.400  744.158
  38.500  637.297
  38.600  529.509
  38.700  617.371
  38.800  577.920
  38.900  496.728
  39.000  506.508
  39.100  699.824
  39.200  676.052
  39.300  666.814
  39.400  750.577
  39.500  640.499
  39.600  498.644
  39.700  634.834
  39.800  524.360
  39.900  586.190
  40.000  760.356
  40.100  700.072
  40.200  722.268
  40.300  760.935
  40.400  825.013
  40.500  769.701
  40.600  852.055
  40.700  852.935
  40.800  814.838
  40.900  972.075
  41.000  924.158
  41.100  928.294
  41.200  901.221
  41.300  686.115
  41.400  816.550
  41.500  896.966
  41.600  844.874
  41.700  771.536
  41.800  601.729
  41.900  757.963
  42.000  795.678
  42.100  846.483
  42.200  855.710
  42.300  919.843
  42.400  955.394
  42.500  918.360
  42.600 1001.127
  42.700 1042.597
  42.800  784.536
  42.900  666.364
  43.000  584.035
  43.100  597.278
  43.200  492.026
  43.300  663.272
  43.400  638.857
  43.500  515.667
  43.600  684.107
  43.700  434.306
  43.800  525.657
  43.900  700.754
  44.000  512.537