File: xrd_output/random_files/2M1-std-25.TXT
Sample
Comments
Filename	C:\WINDMAX\DATA\USERS\GEO\GEO_ER~1\Pyrenees\BULKMA~1\2M1-std2.raw
Goniometer	Ultima IV In-plane
Attachment	Auto sample changer (10 samples)
ScanningMode	2Theta/Theta
ScanningType	Continuos Scanning
X-Ray	40kV/44mA
DivSlit	2/3deg.
DivH.L.Slit	10mm
SctSlit	2/3deg.
RecSlit	0.3mm
Start	16
Stop	44
Step	0.02
Speed	0.3
Offset	0
  16.000  757.894
  16.100  786.836
  16.200  673.774
  16.300  567.388
  16.400  558.915
  16.500  585.627
  16.600  743.664
  16.700  533.021
  16.800  750.259
  16.900  524.574
  17.000  659.305
  17.100  584.418
  17.200  620.371
  17.300  748.093
  17.400  758.506
  17.500  684.661
  17.600  867.819
  17.700  848.164
  17.800 1164.510
  17.900 1408.049
  18.000 1286.105
  18.100 1138.365
  18.200  956.251
  18.300  632.939
  18.400  840.419
  18.500  853.659
  18.600  716.103
  18.700  664.290
  18.800  740.215
  18.900  781.430
  19.000  627.811
  19.100  782.953
  19.200  815.621
  19.300  697.744
  19.400  703.734
  19.500  764.026
  19.600  971.455
  19.700 1038.677
  19.800 1619.358
  19.900 2105.318
  20.000 2560.867
  20.100 2373.359
  20.200 1545.301
  20.300 1051.036
  20.400 1059.621
  20.500  992.499
  20.600 1012.608
  20.700 1073.011
  20.800 1257.292
  20.900 1103.632
  21.000 1022.297
  21.100  781.186
  21.200  911.692
  21.300  794.889
  21.400  821.207
  21.500  966.259
  21.600  980.944
  21.700 1231.638
  21.800  923.146
  21.900  889.931
  22.000  906.695
  22.100  772.460
  22.200  819.064
  22.300  749.530
  22.400  894.089
  22.500  929.522
  22.600  982.679
  22.700  830.370
  22.800  954.589
  22.900 1374.551
  23.000 1579.234
  23.100 1660.037
  23.200 1320.000
  23.300 1106.719
  23.400  866.852
  23.500  827.198
  23.600  848.753
  23.700  889.783
  23.800 1232.611
  23.900 1320.699
  24.000 1446.103
  24.100 1534.785
  24.200 1284.102
  24.300 1096.579
  24.400 1007.991
  24.500  821.552
  24.600  867.122
  24.700  797.675
  24.800  817.037
  24.900  788.342
  25.000  796.695
  25.100 1112.922
  25.200  997.683
  25.300 1209.733
  25.400 1070.196
  25.500 1565.318
  25.600 1721.150
  25.700 1529.390
  25.800 1328.117
  25.900 1103.475
  26.000  925.442
  26.100  946.839
  26.200  748.243
  26.300  923.890
  26.400 1100.804
  26.500 1180.110
  26.600 1518.700
  26.700 1919.185
  26.800 2226.934
  26.900 2331.460
  27.000 1776.948
  27.100 1481.929
  27.200 1105.317
  27.300  952.619
  27.400  877.096
  27.500  802.143
  27.600  913.581
  27.700  883.976
  27.800 1256.341
  27.900 1388.025
  28.000 1709.053
  28.100 1422.360
  28.200 1285.404
  28.300  962.605
  28.400  916.957
  28.500  914.508
  28.600  971.713
  28.700  884.507
  28.800  948.126
  28.900 1012.399
  29.000  743.428
  29.100  748.661
  29.200  668.179
  29.300  797.972
  29.400  849.081
  29.500  754.119
  29.600  758.549
  29.700  824.997
  29.800 1147.978
  29.900 1399.004
  30.000 1648.948
  30.100 1467.267
  30.200 1146.197
  30.300  950.525
  30.400  824.191
  30.500  852.837
  30.600  602.542
  30.700  813.112
  30.800  727.329
  30.900  720.542
  31.000  823.217
  31.100 1070.853
  31.200 1042.837
  31.300 1448.257
  31.400 1681.740
  31.500 1514.083
  31.600 1524.378
  31.700 1485.848
  31.800 1437.056
  31.900 1141.268
  32.000 1045.047
  32.100 1174.290
  32.200 1260.522
  32.300 1032.968
  32.400  749.572
  32.500  637.760
  32.600  628.710
  32.700  813.631
  32.800  692.640
  32.900  602.154
  33.000  655.262
  33.100  559.538
  33.200  791.250
  33.300  613.851
  33.400  613.787
  33.500  687.893
  33.600  493.811
  33.700  608.553
  33.800  795.687
  33.900  617.090
  34.000  700.778
  34.100  723.395
  34.200  882.244
  34.300  822.658
  34.400  833.250
  34.500  796.018
  34.600 1143.848
  34.700 1492.155
  34.800 1652.140
  34.900 1876.975
  35.000 2042.105
  35.100 2597.085
  35.200 2889.293
  35.300 2112.487
  35.400 1442.508
  35.500  927.625
  35.600  825.603
  35.700  815.008
  35.800  856.166
  35.900  860.710
  36.000  727.357
  36.100  862.914
  36.200  909.853
  36.300  704.121
  36.400  975.659
  36.500  971.973
  36.600 1164.200
  36.700 1124.334
  36.800 1033.327
  36.900  897.327
  37.000  932.103
  37.100  790.500
  37.200  870.584
  37.300  695.551
  37.400  825.512
  37.500  950.426
  37.600  862.693
  37.700  964.092
  37.800 1054.266
  37.900 1150.315
  38.000 1261.402
  38.100  892.488
  38.200  767.497
  38.300  744.813
  38.400  882.415
  38.500  647.667
  38.600  752.748
  38.700  665.844
  38.800  608.790
  38.900  490.606
  39.000  503.495
  39.100  555.826
  39.200  654.461
  39.300  555.601
  39.400  546.759
  39.500  499.813
  39.600  515.903
  39.700  712.143
  39.800  628.003
  39.900  580.490
  40.000  632.234
  40.100  689.920
  40.200  940.513
  40.300  957.946
  40.400  781.589
  40.500  861.631
  40.600  870.331
  40.700  684.244
  40.800  931.894
  40.900  791.082
  41.000  953.817
  41.100  959.896
  41.200  734.126
  41.300  673.362
  41.400  762.154
  41.500  798.463
  41.600  814.278
  41.700  817.970
  41.800  782.733
  41.900  788.864
  42.000  654.063
  42.100  821.214
  42.200  870.929
  42.300 1012.569
  42.400  983.256
  42.500 1022.608
  42.600 1137.181
  42.700  875.520
  42.800  768.304
  42.900  679.985
  43.000  609.350
  43.100  503.708
  43.200  686.481
  43.300  627.144
  43.400  594.885
  43.500  613.932
  43.600  474.192
  43.700  461.858
  43.800  528.637
  43.900  519.921
  44.000  650.820