File: xrd_output/random_files/2M1-std-24.TXT
Sample
Comments
Filename	C:\WINDMAX\DATA\USERS\GEO\GEO_ER~1\Pyrenees\BULKMA~1\2M1-std2.raw
Goniometer	Ultima IV In-plane
Attachment	Auto sample changer (10 samples)
ScanningMode	2Theta/Theta
ScanningType	Continuos Scanning
X-Ray	40kV/44mA
DivSlit	2/3deg.
DivH.L.Slit	10mm
SctSlit	2/3deg.
RecSlit	0.3mm
Start	16
Stop	44
Step	0.02
Speed	0.3
Offset	0
  16.000  708.155
  16.100  827.253
  16.200  568.800
  16.300  525.983
  16.400  619.372
  16.500  603.173
  16.600  623.860
  16.700  678.108
  16.800  559.821
  16.900  707.257
  17.000  676.068
  17.100  574.456
  17.200  505.865
  17.300  710.436
  17.400  712.512
  17.500  690.226
  17.600  859.792
  17.700  923.099
  17.800 1126.585
  17.900 1264.469
  18.000 1223.551
  18.100 1135.435
  18.200 1032.955
  18.300  719.193
  18.400  637.081
  18.500  794.898
  18.600  727.631
  18.700  717.441
  18.800  842.908
  18.900  609.903
  19.000  682.750
  19.100  703.548
  19.200  695.983
  19.300  853.763
  19.400  829.599
  19.500  911.312
  19.600  995.526
  19.700 1084.934
  19.800 1598.953
  19.900 2120.462
  20.000 2555.201
  20.100 2350.868
  20.200 1502.865
  20.300 1097.335
  20.400 1181.666
  20.500  937.393
  20.600 1113.869
  20.700 1099.390
  20.800 1243.238
  20.900 1135.002
  21.000 1008.486
  21.100  871.138
  21.200  865.140
  21.300  778.136
  21.400  836.422
  21.500 1013.454
  21.600 1059.251
  21.700 1105.991
  21.800  937.123
  21.900 1025.694
  22.000  911.423
  22.100  871.800
  22.200  859.242
  22.300  876.348
  22.400  884.808
  22.500  937.110
  22.600 1014.711
  22.700 1007.222
  22.800 1048.367
  22.900 1275.449
  23.000 1634.011
  23.100 1657.330
  23.200 1328.551
  23.300 1015.883
  23.400  752.424
  23.500  826.624
  23.600  851.987
  23.700 1089.623
  23.800 1130.420
  23.900 1458.681
  24.000 1445.953
  24.100 1350.658
  24.200 1221.783
  24.300 1092.838
  24.400 1079.872
  24.500  962.888
  24.600  889.066
  24.700  704.070
  24.800  917.550
  24.900  917.185
  25.000  837.816
  25.100  928.768
  25.200 1044.704
  25.300 1032.595
  25.400 1293.812
  25.500 1425.755
  25.600 1562.498
  25.700 1604.963
  25.800 1404.807
  25.900 1118.834
  26.000 1004.827
  26.100  810.920
  26.200  829.530
  26.300  998.124
  26.400 1045.458
  26.500 1147.678
  26.600 1344.287
  26.700 1946.828
  26.800 2189.071
  26.900 2307.071
  27.000 1789.016
  27.100 1263.396
  27.200 1165.977
  27.300  968.206
  27.400 1000.637
  27.500  869.295
  27.600  901.945
  27.700  976.611
  27.800 1205.177
  27.900 1552.951
  28.000 1831.110
  28.100 1613.817
  28.200 1319.618
  28.300 1114.165
  28.400  886.647
  28.500  775.437
  28.600  774.873
  28.700 1058.220
  28.800 1009.382
  28.900  900.899
  29.000  886.401
  29.100  817.165
  29.200  680.316
  29.300  737.730
  29.400  738.070
  29.500  661.439
  29.600  833.449
  29.700  781.974
  29.800 1155.120
  29.900 1354.537
  30.000 1609.141
  30.100 1309.595
  30.200 1134.412
  30.300  954.707
  30.400  882.765
  30.500  709.900
  30.600  814.558
  30.700  576.247
  30.800  843.590
  30.900  628.882
  31.000  928.997
  31.100  858.362
  31.200 1243.560
  31.300 1447.896
  31.400 1515.913
  31.500 1455.490
  31.600 1379.165
  31.700 1357.891
  31.800 1332.192
  31.900 1203.438
  32.000 1025.522
  32.100 1087.496
  32.200 1160.034
  32.300 1066.070
  32.400  854.137
  32.500  802.096
  32.600  875.440
  32.700  772.379
  32.800  815.656
  32.900  706.431
  33.000  607.106
  33.100  605.815
  33.200  800.957
  33.300  524.987
  33.400  608.870
  33.500  730.451
  33.600  530.202
  33.700  764.545
  33.800  631.456
  33.900  793.445
  34.000  767.277
  34.100  765.563
  34.200  847.789
  34.300  842.677
  34.400  779.079
  34.500  950.803
  34.600 1271.751
  34.700 1625.205
  34.800 1744.169
  34.900 1654.373
  35.000 2023.068
  35.100 2702.124
  35.200 2810.295
  35.300 2016.666
  35.400 1463.084
  35.500  983.621
  35.600 1004.858
  35.700  803.946
  35.800  846.068
  35.900  869.945
  36.000  902.925
  36.100  937.843
  36.200  869.813
  36.300  808.423
  36.400  823.541
  36.500 1096.451
  36.600  980.422
  36.700 1096.548
  36.800  920.033
  36.900  875.718
  37.000  822.914
  37.100  885.918
  37.200  831.362
  37.300  745.597
  37.400  920.547
  37.500  776.433
  37.600  852.734
  37.700 1150.362
  37.800 1100.633
  37.900 1176.275
  38.000 1196.224
  38.100  888.561
  38.200  957.011
  38.300  881.820
  38.400  663.922
  38.500  730.353
  38.600  531.815
  38.700  668.456
  38.800  710.387
  38.900  650.401
  39.000  609.434
  39.100  592.373
  39.200  688.967
  39.300  595.564
  39.400  718.211
  39.500  594.220
  39.600  501.164
  39.700  650.024
  39.800  752.490
  39.900  520.929
  40.000  795.482
  40.100  750.775
  40.200  747.550
  40.300  946.327
  40.400  879.436
  40.500  701.582
  40.600  727.506
  40.700  818.163
  40.800  699.097
  40.900  878.471
  41.000  782.134
  41.100  871.894
  41.200  860.263
  41.300  892.532
  41.400  804.874
  41.500  898.374
  41.600  673.109
  41.700  616.999
  41.800  595.965
  41.900  608.547
  42.000  759.908
  42.100  847.283
  42.200  892.261
  42.300  842.190
  42.400  862.085
  42.500 1129.080
  42.600  979.723
  42.700 1076.126
  42.800  691.355
  42.900  579.976
  43.000  705.742
  43.100  623.769
  43.200  579.026
  43.300  444.414
  43.400  512.691
  43.500  536.489
  43.600  561.287
  43.700  559.771
  43.800  490.348
  43.900  543.507
  44.000  505.808