File: xrd_output/random_files/2M1-std-7.TXT
Sample
Comments
Filename	C:\WINDMAX\DATA\USERS\GEO\GEO_ER~1\Pyrenees\BULKMA~1\2M1-std2.raw
Goniometer	Ultima IV In-plane
Attachment	Auto sample changer (10 samples)
ScanningMode	2Theta/Theta
ScanningType	Continuos Scanning
X-Ray	40kV/44mA
DivSlit	2/3deg.
DivH.L.Slit	10mm
SctSlit	2/3deg.
RecSlit	0.3mm
Start	16
Stop	44
Step	0.02
Speed	0.3
Offset	0
  16.000  659.133
  16.100  676.872
  16.200  614.434
  16.300  762.307
  16.400  597.816
  16.500  771.917
  16.600  632.462
  16.700  648.478
  16.800  718.569
  16.900  613.844
  17.000  513.526
  17.100  513.723
  17.200  643.860
  17.300  624.180
  17.400  648.361
  17.500  779.149
  17.600  720.677
  17.700  791.017
  17.800 1076.190
  17.900 1401.427
  18.000 1369.687
  18.100 1282.778
  18.200  897.388
  18.300  649.746
  18.400  686.047
  18.500  626.847
  18.600  738.562
  18.700  853.282
  18.800  796.841
  18.900  783.317
  19.000  751.854
  19.100  573.655
  19.200  741.580
  19.300  743.103
  19.400  737.483
  19.500  696.203
  19.600  981.106
  19.700 1131.158
  19.800 1395.022
  19.900 2125.972
  20.000 2674.836
  20.100 2314.196
  20.200 1618.093
  20.300 1193.089
  20.400  963.365
  20.500 1001.564
  20.600  947.651
  20.700 1016.325
  20.800 1286.563
  20.900  986.422
  21.000  934.619
  21.100  875.270
  21.200  747.708
  21.300  739.233
  21.400  880.767
  21.500  924.874
  21.600 1030.315
  21.700 1045.150
  21.800 1116.629
  21.900  972.273
  22.000  742.154
  22.100  847.915
  22.200  781.180
  22.300  848.914
  22.400  943.032
  22.500  840.077
  22.600  977.006
  22.700  931.252
  22.800  980.630
  22.900 1249.116
  23.000 1425.520
  23.100 1662.230
  23.200 1218.474
  23.300  961.848
  23.400  890.787
  23.500  819.103
  23.600  908.348
  23.700  954.394
  23.800 1175.462
  23.900 1480.626
  24.000 1570.018
  24.100 1528.733
  24.200 1390.945
  24.300 1093.180
  24.400  932.219
  24.500  869.573
  24.600  842.220
  24.700  923.464
  24.800  816.140
  24.900  981.263
  25.000  868.352
  25.100  937.400
  25.200 1090.615
  25.300 1204.400
  25.400 1321.392
  25.500 1307.570
  25.600 1593.352
  25.700 1711.402
  25.800 1373.096
  25.900  982.466
  26.000  878.901
  26.100  820.539
  26.200  763.224
  26.300  853.882
  26.400  889.375
  26.500 1020.160
  26.600 1328.357
  26.700 1890.724
  26.800 2348.499
  26.900 2280.524
  27.000 1829.884
  27.100 1454.096
  27.200 1078.675
  27.300  975.396
  27.400  889.427
  27.500  970.633
  27.600 1083.817
  27.700 1142.398
  27.800 1273.366
  27.900 1525.039
  28.000 1669.877
  28.100 1648.055
  28.200 1155.127
  28.300 1083.290
  28.400  998.148
  28.500  788.607
  28.600  987.106
  28.700  820.506
  28.800  931.386
  28.900  867.335
  29.000  850.844
  29.100  742.956
  29.200  794.698
  29.300  763.760
  29.400  665.248
  29.500  802.466
  29.600  846.735
  29.700  869.277
  29.800 1184.643
  29.900 1371.009
  30.000 1605.314
  30.100 1543.278
  30.200 1040.813
  30.300  827.101
  30.400  784.489
  30.500  597.407
  30.600  811.427
  30.700  644.781
  30.800  691.475
  30.900  758.802
  31.000  810.500
  31.100 1054.058
  31.200 1045.084
  31.300 1363.724
  31.400 1501.272
  31.500 1579.293
  31.600 1542.063
  31.700 1305.088
  31.800 1372.597
  31.900 1231.623
  32.000 1151.040
  32.100 1017.319
  32.200 1276.755
  32.300 1130.055
  32.400  951.808
  32.500  787.309
  32.600  743.755
  32.700  575.139
  32.800  697.188
  32.900  783.333
  33.000  636.844
  33.100  681.387
  33.200  702.591
  33.300  614.906
  33.400  545.164
  33.500  624.933
  33.600  729.294
  33.700  622.149
  33.800  598.260
  33.900  621.831
  34.000  658.788
  34.100  636.331
  34.200  825.677
  34.300  838.497
  34.400  716.607
  34.500 1001.697
  34.600 1273.467
  34.700 1596.425
  34.800 1661.513
  34.900 1739.704
  35.000 2042.803
  35.100 2668.086
  35.200 2927.076
  35.300 2124.837
  35.400 1377.198
  35.500 1069.339
  35.600  855.154
  35.700  868.217
  35.800  738.602
  35.900  846.515
  36.000  869.679
  36.100  975.282
  36.200  830.599
  36.300  739.357
  36.400  781.091
  36.500  850.693
  36.600  989.208
  36.700 1192.620
  36.800 1155.088
  36.900  950.558
  37.000  969.289
  37.100  936.280
  37.200  853.608
  37.300  829.433
  37.400  759.029
  37.500  991.400
  37.600  943.398
  37.700  938.474
  37.800 1079.113
  37.900 1154.164
  38.000 1121.119
  38.100 1050.739
  38.200  785.322
  38.300  847.956
  38.400  635.776
  38.500  758.024
  38.600  639.736
  38.700  737.265
  38.800  732.136
  38.900  657.926
  39.000  596.967
  39.100  648.777
  39.200  614.192
  39.300  534.931
  39.400  678.686
  39.500  591.955
  39.600  605.281
  39.700  679.732
  39.800  552.516
  39.900  678.980
  40.000  606.435
  40.100  752.277
  40.200  962.593
  40.300  937.919
  40.400  953.990
  40.500  756.615
  40.600  704.371
  40.700  727.650
  40.800  894.343
  40.900  798.699
  41.000  935.778
  41.100  963.280
  41.200  813.477
  41.300  702.009
  41.400  709.568
  41.500  686.153
  41.600  866.593
  41.700  791.022
  41.800  561.729
  41.900  661.326
  42.000  736.681
  42.100  887.042
  42.200 1048.312
  42.300  936.826
  42.400 1093.897
  42.500  985.565
  42.600  982.568
  42.700  877.374
  42.800  819.430
  42.900  692.197
  43.000  531.090
  43.100  534.221
  43.200  618.639
  43.300  606.798
  43.400  537.443
  43.500  442.942
  43.600  662.823
  43.700  459.389
  43.800  541.346
  43.900  638.729
  44.000  551.600