File: xrd_output/random_files/2M1-std-2.TXT
Sample
Comments
Filename	C:\WINDMAX\DATA\USERS\GEO\GEO_ER~1\Pyrenees\BULKMA~1\2M1-std2.raw
Goniometer	Ultima IV In-plane
Attachment	Auto sample changer (10 samples)
ScanningMode	2Theta/Theta
ScanningType	Continuos Scanning
X-Ray	40kV/44mA
DivSlit	2/3deg.
DivH.L.Slit	10mm
SctSlit	2/3deg.
RecSlit	0.3mm
Start	16
Stop	44
Step	0.02
Speed	0.3
Offset	0
  16.000  576.214
  16.100  672.000
  16.200  743.822
  16.300  706.239
  16.400  540.788
  16.500  698.562
  16.600  756.888
  16.700  583.702
  16.800  686.782
  16.900  715.868
  17.000  710.810
  17.100  726.135
  17.200  684.179
  17.300  676.017
  17.400  703.579
  17.500  591.576
  17.600  846.596
  17.700  778.000
  17.800 1006.112
  17.900 1436.675
  18.000 1379.666
  18.100 1228.600
  18.200 1029.791
  18.300  773.422
  18.400  625.521
  18.500  606.305
  18.600  730.627
  18.700  867.622
  18.800  731.536
  18.900  810.544
  19.000  636.181
  19.100  575.899
  19.200  649.674
  19.300  705.219
  19.400  739.210
  19.500  888.173
  19.600  861.274
  19.700 1140.386
  19.800 1455.157
  19.900 2229.346
  20.000 2631.605
  20.100 2374.333
  20.200 1560.330
  20.300 1288.932
  20.400 1157.826
  20.500 1051.486
  20.600 1120.855
  20.700 1190.440
  20.800 1341.830
  20.900 1052.288
  21.000  932.557
  21.100  665.526
  21.200  833.531
  21.300  770.339
  21.400  731.891
  21.500  839.902
  21.600 1112.671
  21.700 1181.719
  21.800 1038.146
  21.900 1070.531
  22.000  750.792
  22.100  775.901
  22.200  916.386
  22.300  788.251
  22.400  774.980
  22.500  885.401
  22.600  966.304
  22.700 1050.298
  22.800 1116.327
  22.900 1288.053
  23.000 1578.742
  23.100 1623.817
  23.200 1271.578
  23.300 1123.357
  23.400  976.703
  23.500  927.218
  23.600  941.571
  23.700  933.472
  23.800 1128.219
  23.900 1419.320
  24.000 1572.831
  24.100 1575.167
  24.200 1221.500
  24.300 1126.996
  24.400 1079.330
  24.500  955.983
  24.600  903.636
  24.700  861.017
  24.800  926.568
  24.900  925.576
  25.000  853.472
  25.100  990.065
  25.200 1174.844
  25.300 1263.702
  25.400 1102.839
  25.500 1443.201
  25.600 1670.624
  25.700 1755.424
  25.800 1321.969
  25.900  994.220
  26.000  982.331
  26.100  839.024
  26.200  788.415
  26.300  867.646
  26.400 1023.652
  26.500 1172.834
  26.600 1473.939
  26.700 1749.131
  26.800 2321.055
  26.900 2411.062
  27.000 1940.513
  27.100 1355.494
  27.200  996.947
  27.300  952.727
  27.400  934.269
  27.500 1005.886
  27.600 1046.558
  27.700 1054.245
  27.800 1237.628
  27.900 1578.689
  28.000 1689.409
  28.100 1510.159
  28.200 1261.568
  28.300 1142.828
  28.400  910.582
  28.500 1011.908
  28.600  984.572
  28.700 1056.829
  28.800  907.234
  28.900  899.807
  29.000  759.557
  29.100  760.071
  29.200  764.097
  29.300  694.093
  29.400  746.386
  29.500  618.467
  29.600  876.286
  29.700  916.143
  29.800 1138.686
  29.900 1426.903
  30.000 1424.049
  30.100 1546.189
  30.200 1017.782
  30.300  992.724
  30.400  679.628
  30.500  660.180
  30.600  705.053
  30.700  591.426
  30.800  834.220
  30.900  653.216
  31.000  860.559
  31.100  996.047
  31.200 1212.017
  31.300 1471.375
  31.400 1548.741
  31.500 1527.858
  31.600 1568.411
  31.700 1508.377
  31.800 1406.455
  31.900 1205.056
  32.000 1016.298
  32.100 1059.454
  32.200 1267.322
  32.300 1089.626
  32.400  920.669
  32.500  712.097
  32.600  834.334
  32.700  631.259
  32.800  578.713
  32.900  827.061
  33.000  847.507
  33.100  609.653
  33.200  584.522
  33.300  552.017
  33.400  720.992
  33.500  596.771
  33.600  579.814
  33.700  746.832
  33.800  594.001
  33.900  665.778
  34.000  690.915
  34.100  771.999
  34.200  773.358
  34.300  652.000
  34.400  766.863
  34.500  823.507
  34.600 1189.044
  34.700 1433.056
  34.800 1558.385
  34.900 1852.792
  35.000 2136.370
  35.100 2593.723
  35.200 2771.122
  35.300 1959.623
  35.400 1471.026
  35.500 1089.444
  35.600  972.166
  35.700  877.528
  35.800  872.577
  35.900  789.634
  36.000  923.186
  36.100  732.475
  36.200  807.872
  36.300  811.794
  36.400  974.255
  36.500  854.155
  36.600  993.240
  36.700 1126.723
  36.800 1053.645
  36.900  959.286
  37.000  871.710
  37.100  831.213
  37.200  834.318
  37.300  744.374
  37.400  767.636
  37.500  965.229
  37.600  919.274
  37.700  997.951
  37.800 1118.764
  37.900 1224.016
  38.000 1271.610
  38.100  970.023
  38.200  981.182
  38.300  766.620
  38.400  707.862
  38.500  750.719
  38.600  541.718
  38.700  743.801
  38.800  583.353
  38.900  599.540
  39.000  649.706
  39.100  465.530
  39.200  573.823
  39.300  618.474
  39.400  676.954
  39.500  689.296
  39.600  606.940
  39.700  756.327
  39.800  585.766
  39.900  695.698
  40.000  688.906
  40.100  670.867
  40.200  883.647
  40.300  975.660
  40.400  974.413
  40.500  857.080
  40.600  885.551
  40.700  737.355
  40.800  716.319
  40.900  886.308
  41.000  864.603
  41.100  887.749
  41.200  717.223
  41.300  678.908
  41.400  864.713
  41.500  861.802
  41.600  851.492
  41.700  585.178
  41.800  531.077
  41.900  605.398
  42.000  711.054
  42.100  819.671
  42.200 1008.404
  42.300  856.777
  42.400  984.772
  42.500  928.829
  42.600 1043.272
  42.700 1098.419
  42.800  729.928
  42.900  621.534
  43.000  750.163
  43.100  467.833
  43.200  661.064
  43.300  615.479
  43.400  576.991
  43.500  641.856
  43.600  505.861
  43.700  601.239
  43.800  464.680
  43.900  721.816
  44.000  526.527