File: xrd_output/random_files/2M1-std-21.TXT
Sample
Comments
Filename	C:\WINDMAX\DATA\USERS\GEO\GEO_ER~1\Pyrenees\BULKMA~1\2M1-std2.raw
Goniometer	Ultima IV In-plane
Attachment	Auto sample changer (10 samples)
ScanningMode	2Theta/Theta
ScanningType	Continuos Scanning
X-Ray	40kV/44mA
DivSlit	2/3deg.
DivH.L.Slit	10mm
SctSlit	2/3deg.
RecSlit	0.3mm
Start	16
Stop	44
Step	0.02
Speed	0.3
Offset	0
  16.000  613.244
  16.100  785.787
  16.200  642.696
  16.300  763.334
  16.400  568.841
  16.500  772.084
  16.600  585.174
  16.700  700.098
  16.800  720.218
  16.900  774.631
  17.000  546.301
  17.100  614.309
  17.200  570.882
  17.300  729.183
  17.400  633.325
  17.500  783.469
  17.600  728.984
  17.700  844.490
  17.800 1078.767
  17.900 1246.125
  18.000 1367.850
  18.100 1200.584
  18.200 1064.857
  18.300  677.072
  18.400  875.053
  18.500  858.518
  18.600  889.616
  18.700  687.344
  18.800  743.341
  18.900  694.718
  19.000  666.083
  19.100  574.728
  19.200  800.215
  19.300  805.708
  19.400  665.110
  19.500  919.675
  19.600  882.623
  19.700 1079.898
  19.800 1575.893
  19.900 2218.547
  20.000 2692.976
  20.100 2263.836
  20.200 1462.274
  20.300 1265.865
  20.400 1128.610
  20.500  877.730
  20.600 1074.424
  20.700 1235.246
  20.800 1252.247
  20.900 1034.998
  21.000  863.439
  21.100  825.321
  21.200  894.057
  21.300  874.394
  21.400  948.246
  21.500  833.226
  21.600 1079.779
  21.700 1155.762
  21.800 1184.166
  21.900  813.227
  22.000  973.639
  22.100  791.281
  22.200  691.924
  22.300  695.676
  22.400  794.835
  22.500  936.878
  22.600  898.557
  22.700  967.157
  22.800  929.815
  22.900 1210.862
  23.000 1551.545
  23.100 1556.319
  23.200 1437.425
  23.300 1049.993
  23.400  785.257
  23.500  785.974
  23.600  866.651
  23.700  930.757
  23.800 1240.485
  23.900 1413.746
  24.000 1538.477
  24.100 1519.242
  24.200 1357.988
  24.300 1136.454
  24.400  854.008
  24.500  795.134
  24.600  771.372
  24.700  685.104
  24.800  860.856
  24.900  963.779
  25.000  875.364
  25.100 1138.169
  25.200 1177.401
  25.300 1239.373
  25.400 1160.580
  25.500 1396.878
  25.600 1573.906
  25.700 1528.149
  25.800 1368.141
  25.900 1033.119
  26.000  802.555
  26.100 1001.495
  26.200  779.279
  26.300 1029.375
  26.400  901.937
  26.500 1258.661
  26.600 1414.816
  26.700 1896.946
  26.800 2247.446
  26.900 2392.768
  27.000 1971.683
  27.100 1297.902
  27.200 1087.067
  27.300  879.822
  27.400  952.279
  27.500  871.394
  27.600  834.998
  27.700 1098.206
  27.800 1061.822
  27.900 1549.761
  28.000 1773.471
  28.100 1629.554
  28.200 1214.895
  28.300 1086.692
  28.400 1062.398
  28.500  871.945
  28.600  736.867
  28.700  916.035
  28.800  870.235
  28.900  964.283
  29.000  733.138
  29.100  778.613
  29.200  648.647
  29.300  781.909
  29.400  724.817
  29.500  655.508
  29.600  814.659
  29.700  806.988
  29.800  986.843
  29.900 1412.616
  30.000 1602.629
  30.100 1406.197
  30.200 1158.702
  30.300  815.292
  30.400  712.311
  30.500  672.522
  30.600  784.588
  30.700  786.992
  30.800  742.654
  30.900  669.217
  31.000  913.742
  31.100  944.228
  31.200 1070.755
  31.300 1313.233
  31.400 1441.547
  31.500 1350.120
  31.600 1499.284
  31.700 1391.497
  31.800 1390.122
  31.900 1104.546
  32.000 1025.456
  32.100 1040.856
  32.200 1133.800
  32.300  984.702
  32.400  846.438
  32.500  693.955
  32.600  815.195
  32.700  583.107
  32.800  639.962
  32.900  730.420
  33.000  622.942
  33.100  622.005
  33.200  630.170
  33.300  730.050
  33.400  600.903
  33.500  585.638
  33.600  693.102
  33.700  586.008
  33.800  724.378
  33.900  771.568
  34.000  694.876
  34.100  854.095
  34.200  847.232
  34.300  689.582
  34.400  655.651
  34.500  816.938
  34.600 1075.636
  34.700 1493.471
  34.800 1678.873
  34.900 1751.504
  35.000 2127.470
  35.100 2708.135
  35.200 2833.602
  35.300 2123.625
  35.400 1430.542
  35.500  970.911
  35.600  772.268
  35.700  828.513
  35.800  737.734
  35.900  887.447
  36.000  878.968
  36.100  726.585
  36.200  875.904
  36.300  925.487
  36.400  822.273
  36.500 1063.970
  36.600  968.843
  36.700 1027.797
  36.800  938.973
  36.900  989.317
  37.000  854.110
  37.100  870.281
  37.200  664.055
  37.300  675.292
  37.400  858.576
  37.500  850.569
  37.600 1005.400
  37.700  919.575
  37.800 1110.161
  37.900 1128.993
  38.000 1144.368
  38.100 1039.668
  38.200  985.241
  38.300  805.987
  38.400  876.899
  38.500  613.986
  38.600  664.837
  38.700  647.821
  38.800  625.604
  38.900  625.656
  39.000  529.219
  39.100  709.188
  39.200  641.620
  39.300  502.022
  39.400  694.237
  39.500  496.153
  39.600  569.620
  39.700  644.530
  39.800  614.817
  39.900  579.998
  40.000  715.752
  40.100  663.570
  40.200  737.860
  40.300  957.076
  40.400  878.349
  40.500  731.567
  40.600  768.307
  40.700  870.325
  40.800  809.667
  40.900  844.657
  41.000  808.173
  41.100  968.417
  41.200  752.927
  41.300  833.312
  41.400  802.086
  41.500  691.663
  41.600  873.844
  41.700  645.534
  41.800  598.671
  41.900  805.446
  42.000  727.606
  42.100  856.161
  42.200  910.640
  42.300  999.942
  42.400  876.551
  42.500  919.015
  42.600  927.149
  42.700  983.649
  42.800  782.144
  42.900  755.632
  43.000  577.084
  43.100  456.022
  43.200  525.323
  43.300  555.771
  43.400  637.613
  43.500  495.830
  43.600  535.856
  43.700  471.819
  43.800  686.013
  43.900  645.337
  44.000  543.993